SF_Version 0.9.3
19-Aug-2024 12:36:46
Temp(K) Pressure(MPa) Temp(K) Pressure(MPa)  Points 
273.1527 0.1000 239.1000 285.4072 912.0000
###########################################################
D H (J/kg)  D S (J/(K*kg)
333497.5625 1220.9199
333406.3248 1220.7520
333368.1895 1220.6817
333314.6899 1220.5830
333222.6671 1220.4129
333130.2781 1220.2417
333121.6056 1220.2256
333037.4782 1220.0694
332944.3089 1219.8960
332873.6832 1219.7643
332850.7635 1219.7215
332756.8169 1219.5459
332662.5078 1219.3692
332624.4508 1219.2978
332567.8068 1219.1914
332472.7244 1219.0125
332377.2814 1218.8326
332373.9352 1218.8263
332281.4297 1218.6515
332185.2169 1218.4694
332122.1750 1218.3498
332088.6277 1218.2862
331991.6471 1218.1018
331894.3087 1217.9165
331869.1865 1217.8685
331796.5753 1217.7299
331698.4720 1217.5424
331614.9978 1217.3825
331600.0045 1217.3538
331501.1381 1217.1640
331401.9160 1216.9732
331359.6358 1216.8918
331302.3096 1216.7813
331202.3269 1216.5883
331103.1134 1216.3964
331101.9893 1216.3943
331001.2475 1216.1991
330900.1521 1216.0029
330845.4670 1215.8966
330798.6801 1215.8056
330696.8280 1215.6072
330594.6236 1215.4078
330586.7010 1215.3923
330492.0202 1215.2072
330389.0615 1215.0056
330326.8506 1214.8836
330285.7315 1214.8029
330182.0202 1214.5991
330077.9588 1214.3943
330065.9235 1214.3706
329973.5027 1214.1883
329868.6915 1213.9813
329803.9516 1213.8533
329763.5119 1213.7733
329657.9526 1213.5641
329552.0455 1213.3539
329540.9432 1213.3319
329445.7450 1213.1426
329339.0923 1212.9303
329276.9290 1212.8063
329232.0715 1212.7168
329124.6745 1212.5023
329016.9318 1212.2868
329011.9129 1212.2768
328908.7944 1212.0701
328800.3095 1211.8524
328745.9283 1211.7432
328691.4540 1211.6336
328582.2282 1211.4138
328478.9734 1211.2056
328472.6554 1211.1929
328362.6902 1210.9709
328252.3816 1210.7478
328211.0820 1210.6642
328141.6976 1210.5237
328030.6518 1210.2985
327942.2558 1210.1190
327919.2531 1210.0723
327807.4715 1209.8449
327695.3487 1209.6165
327672.5182 1209.5700
327582.8435 1209.3871
327469.9873 1209.1565
327401.8855 1209.0173
327356.7704 1208.9250
327243.1825 1208.6923
327130.3633 1208.4609
327129.2548 1208.4586
327014.9365 1208.2238
326900.2798 1207.9880
326857.9852 1207.9009
326785.2518 1207.7510
326669.8669 1207.5131
326584.7476 1207.3373
326554.1306 1207.2740
326438.0188 1207.0339
326321.5702 1206.7928
326310.6688 1206.7702
326204.7377 1206.5505
326087.5643 1206.3073
326035.7711 1206.1996
325970.0259 1206.0629
325852.1292 1205.8175
325760.0548 1205.6256
325733.8859 1205.5711
325615.2673 1205.3235
325496.3146 1205.0750
325483.5394 1205.0483
325376.9813 1204.8253
325257.3091 1204.5746
325206.2442 1204.4675
325137.2739 1204.3228
325016.8837 1204.0700
324928.1708 1203.8835
324896.1477 1203.8162
324775.0411 1203.5612
324653.6035 1203.3053
324649.3343 1203.2963
324531.7839 1203.0482
324409.6322 1202.7901
324369.7598 1202.7058
324287.1146 1202.5309
324164.2503 1202.2707
324089.4450 1202.1121
324041.0359 1202.0095
323917.4605 1201.7471
323808.4022 1201.5154
323793.5503 1201.4838
323669.2653 1201.2194
323544.6528 1200.9539
323526.6517 1200.9155
323419.6675 1200.6874
323294.3478 1200.4198
323244.2036 1200.3126
323168.6698 1200.1512
323042.6446 1199.8815
322961.0631 1199.7067
322916.2750 1199.6108
322789.5459 1199.3390
322677.2417 1199.0979
322662.4860 1199.0662
322535.0547 1198.7923
322407.2996 1198.5174
322392.7576 1198.4861
322279.1737 1198.2414
322150.7189 1197.9644
322107.6217 1197.8714
322021.9059 1197.6863
321892.7529 1197.4072
321821.8382 1197.2538
321763.2541 1197.1271
321633.4045 1196.8459
321535.4178 1196.6335
321503.2209 1196.5636
321372.6764 1196.2803
321248.3710 1196.0103
321241.8094 1195.9961
321110.5715 1195.7106
320979.0147 1195.4243
320960.7167 1195.3844
320847.0926 1195.1368
320714.8449 1194.8483
320672.4594 1194.7558
320582.2426 1194.5588
320449.3057 1194.2682
320383.6060 1194.1245
320316.0244 1193.9766
320182.4000 1193.6839
320094.1664 1193.4905
320048.4410 1193.3903
319914.1306 1193.0955
319804.1505 1192.8540
319779.4952 1192.7998
319644.5004 1192.5029
319513.5676 1192.2148
319509.1899 1192.2052
319373.5124 1191.9062
319237.5218 1191.6064
319222.4342 1191.5731
319101.1694 1191.3054
318964.4986 1191.0035
318930.7541 1190.9289
318827.4742 1190.7004
318690.1247 1190.3964
318638.5341 1190.2821
318552.4296 1190.0913
318414.4032 1189.7852
318345.7832 1189.6329
318276.0386 1189.4781
318137.3367 1189.1699
318052.5099 1188.9813
317998.3038 1188.8607
317858.9280 1188.5505
317758.7229 1188.3273
317719.2281 1188.2393
317579.1801 1187.9270
317464.4303 1187.6709
317438.8142 1187.6137
317298.0956 1187.2993
317169.6404 1187.0121
317157.0651 1186.9840
317015.6773 1186.6676
316874.3613 1186.3510
316873.9834 1186.3502
316731.9280 1186.0317
316589.5674 1185.7123
316578.6058 1185.6877
316446.8503 1185.3917
316303.8245 1185.0702
316282.3764 1185.0220
316160.4470 1184.7477
316016.7575 1184.4241
315985.6804 1184.3541
315872.7207 1184.0995
315728.3690 1183.7739
315688.5253 1183.6840
315583.6740 1183.4472
315438.6616 1183.1196
315390.9183 1183.0117
315293.3096 1182.7909
315147.6379 1182.4612
315092.8665 1182.3372
315001.6300 1182.1305
314855.3005 1181.7987
314794.3769 1181.6605
314708.6378 1181.4660
314561.6520 1181.1322
314495.4564 1180.9818
314414.3356 1180.7974
314266.6948 1180.4616
314196.1117 1180.3009
314118.7257 1180.1247
313970.4314 1179.7869
313896.3494 1179.6180
313821.8108 1179.4480
313672.8644 1179.1081
313596.1759 1178.9330
313523.5932 1178.7672
313373.9960 1178.4252
313295.5975 1178.2459
313224.0754 1178.0823
313073.8288 1177.7383
312994.6205 1177.5569
312923.2596 1177.3933
312772.3651 1177.0473
312693.2510 1176.8658
312621.1484 1176.7003
312469.6071 1176.3523
312391.4949 1176.1728
312317.7439 1176.0032
312165.5574 1175.6532
312089.3582 1175.4778
312013.0486 1175.3021
311860.2180 1174.9500
311786.8466 1174.7809
311707.0647 1174.5969
311553.5915 1174.2428
311483.9658 1174.0820
311399.7946 1173.8876
311245.6799 1173.5315
311180.7215 1173.3813
311091.2404 1173.1743
310936.4857 1172.8161
310877.1190 1172.6787
310781.4045 1172.4569
310626.0110 1172.0967
310573.1639 1171.9742
310470.2891 1171.7355
310314.2581 1171.3733
310268.8615 1171.2679
310157.8965 1171.0100
310001.2293 1170.6458
309964.2171 1170.5597
309844.2288 1170.2805
309686.9267 1169.9143
309659.2357 1169.8498
309529.2884 1169.5469
309371.3526 1169.1787
309353.9227 1169.1380
309213.0774 1168.8093
309054.5093 1168.4391
309048.2829 1168.4245
308895.5980 1168.0677
308742.3240 1167.7092
308736.3967 1167.6954
308576.8526 1167.3220
308436.0514 1166.9922
308417.0165 1166.9476
308256.8432 1166.5722
308129.4672 1166.2735
308096.3735 1166.1959
307935.5723 1165.8185
307822.5762 1165.5531
307774.4697 1165.4401
307613.0419 1165.0606
307515.3832 1164.8310
307451.3075 1164.6802
307289.2543 1164.2988
307207.8928 1164.1072
307126.8890 1163.9163
306964.2118 1163.5329
306900.1095 1163.3817
306801.2166 1163.1484
306637.9166 1162.7630
306592.0381 1162.6547
306474.2924 1162.3765
306310.3710 1161.9891
306283.6830 1161.9259
306146.1187 1161.6005
305981.5771 1161.2111
305975.0485 1161.1956
305816.6977 1160.8205
305666.1454 1160.4637
305651.5319 1160.4291
305486.0318 1160.0365
305356.9748 1159.7302
305320.2402 1159.6430
305154.1231 1159.2485
305047.5383 1158.9952
304987.7067 1158.8529
304820.9740 1158.4564
304737.8402 1158.2586
304653.9338 1158.0589
304486.5867 1157.6603
304427.8846 1157.5204
304318.9235 1157.2607
304150.9634 1156.8602
304117.6757 1156.7808
303982.6783 1156.4586
303814.1064 1156.0561
303807.2175 1156.0396
303645.2004 1155.6525
303496.5226 1155.2970
303476.0105 1155.2479
303306.4921 1154.8423
303185.5896 1154.5529
303136.6825 1154.4357
302966.5556 1154.0281
302874.4198 1153.8073
302796.1275 1153.6196
302625.3934 1153.2100
302563.0171 1153.0603
302454.3476 1152.7993
302283.0077 1152.3878
302251.3853 1152.3118
302111.3454 1151.9751
301939.5285 1151.5619
301939.4008 1151.5616
301767.1230 1151.1469
301627.4635 1150.8106
301594.5633 1150.7313
301421.6829 1150.3147
301315.1813 1150.0579
301248.5091 1149.8971
301075.0276 1149.4785
301002.6857 1149.3038
300901.2407 1149.0589
300727.1594 1148.6383
300689.9805 1148.5484
300552.7604 1148.2166
300378.0808 1147.7941
300377.0692 1147.7916
300203.0708 1147.3704
300063.9701 1147.0335
300027.7810 1146.9458
299852.1743 1146.5202
299750.6731 1146.2741
299676.2750 1146.0936
299500.0735 1145.6660
299437.1815 1145.5133
299323.5658 1145.2374
299146.7709 1144.8078
299123.4987 1144.7512
298969.6559 1144.3772
298809.6353 1143.9879
298792.2626 1143.9456
298614.5478 1143.5130
298495.5975 1143.2233
298436.5489 1143.0794
298258.2442 1142.6448
298181.3795 1142.4574
298079.6407 1142.2092
297900.7478 1141.7727
297866.9850 1141.6902
297721.5409 1141.3350
297552.4215 1140.9219
297542.0574 1140.8965
297362.2520 1140.4569
297237.7018 1140.1523
297182.1668 1140.0164
297001.7768 1139.5748
296922.8162 1139.3815
296821.0911 1139.1323
296640.1182 1138.6888
296607.7683 1138.6095
296458.8332 1138.2442
296292.5673 1137.8363
296277.2733 1137.7987
296095.3958 1137.3522
295977.2235 1137.0619
295913.2385 1136.9047
295730.7819 1136.4562
295661.7278 1136.2864
295548.0283 1136.0067
295364.9944 1135.5563
295346.0837 1135.5097
295181.6459 1135.1048
295030.3067 1134.7319
294998.0246 1134.6524
294814.0943 1134.1989
294714.3955 1133.9530
294629.8799 1133.7445
294445.3764 1133.2891
294398.3462 1133.1730
294260.5704 1132.8327
294082.1647 1132.3919
294075.4930 1132.3754
293890.0991 1131.9169
293765.8698 1131.6096
293704.4321 1131.4576
293518.4694 1130.9973
293449.4471 1130.8264
293332.2142 1130.5360
293145.6844 1130.0737
293132.8999 1130.0420
292958.8424 1129.6104
292816.2480 1129.2566
292771.7312 1129.1462
292584.3202 1128.6809
292499.4832 1128.4702
292396.6244 1128.2147
292208.6508 1127.7475
292182.6040 1127.6828
292020.3719 1127.2793
291865.6262 1126.8943
291831.8255 1126.8102
291642.9773 1126.3400
291548.5504 1126.1048
291453.8500 1125.8689
291264.4441 1125.3969
291231.3702 1125.3144
291074.7375 1124.9238
290914.0996 1124.5230
290884.7650 1124.4498
290694.4915 1123.9747
290596.7434 1123.7306
290503.9421 1123.4988
290313.1156 1123.0218
290279.2928 1122.9373
290121.9909 1122.5439
289961.7622 1122.1430
289930.6021 1122.0650
289738.9151 1121.5852
289644.1560 1121.3478
289546.9535 1121.1043
289354.7186 1120.6226
289326.4651 1120.5517
289162.1857 1120.1398
289008.7068 1119.7548
288969.3907 1119.6561
288776.3027 1119.1714
288690.8804 1118.9569
288582.9390 1118.6857
288389.3084 1118.1992
288372.9791 1118.1581
288195.3777 1117.7115
288055.0250 1117.3585
288001.1868 1117.2230
287806.7107 1116.7335
287737.0081 1116.5580
287611.9554 1116.2431
287418.9264 1115.7567
287416.9411 1115.7517
287221.6239 1115.2593
287100.8069 1114.9546
287026.0477 1114.7660
286830.1961 1114.2717
286782.6280 1114.1516
286634.0597 1113.7764
286464.4020 1113.3478
286437.6661 1113.2803
286240.9810 1112.7831
286146.1391 1112.5433
286044.0297 1112.2850
285846.8153 1111.7860
285827.8256 1111.7379
285649.3079 1111.2860
285509.4842 1110.9318
285451.5452 1110.7850
285253.5045 1110.2831
285191.1045 1110.1249
285055.1881 1109.7803
284872.6880 1109.3173
284856.6173 1109.2765
284657.7547 1108.7718
284554.2535 1108.5089
284458.6326 1108.2661
284259.2487 1107.7595
284235.7823 1107.6998
284059.5769 1107.2519
283917.2963 1106.8900
283859.6525 1106.7434
283659.4537 1106.2339
283598.7868 1106.0795
283458.9819 1105.7235
283280.2558 1105.2683
283258.2586 1105.2122
283057.2491 1104.6999
282961.7189 1104.4563
282855.9806 1104.1867
282654.4575 1103.6726
282643.1581 1103.6437
282452.6456 1103.1574
282324.6005 1102.8304
282250.5837 1102.6414
282048.2569 1102.1244
282006.0278 1102.0165
281845.6538 1101.6065
281687.4533 1101.2019
281642.8018 1101.0877
281439.6753 1100.5679
281368.8788 1100.3867
281236.2843 1100.0472
281050.2983 1099.5708
281032.6454 1099.5256
280828.7235 1099.0030
280731.7319 1098.7543
280624.5478 1098.4794
280420.1227 1097.9551
280413.1585 1097.9372
280215.4118 1097.4296
280094.6075 1097.1195
280010.4547 1096.9034
279805.2409 1096.3761
279776.0565 1096.3011
279599.7508 1095.8480
279457.5256 1095.4822
279394.0154 1095.3189
279188.0172 1094.7889
279139.0062 1094.6628
278981.7510 1094.2579
278820.5056 1093.8427
278775.2406 1093.7261
278568.4618 1093.1933
278502.0271 1093.0221
278361.4228 1092.6596
278183.5666 1092.2009
278154.1406 1092.1250
277946.5854 1091.5894
277865.1380 1091.3792
277738.7768 1091.0529
277546.7273 1090.5569
277530.7258 1090.5155
277322.3983 1089.9772
277228.3574 1089.7341
277113.8232 1089.4379
276910.0060 1088.9108
276905.0068 1088.8978
276695.9109 1088.3567
276591.7034 1088.0869
276486.5726 1087.8147
276276.9925 1087.2718
276273.4218 1087.2626
276067.1338 1086.7279
275955.1938 1086.4377
275857.0353 1086.1832
275646.6939 1085.6376
275636.9919 1085.6124
275436.0773 1085.0910
275318.8459 1084.7866
275225.2219 1084.5435
275014.1231 1083.9951
275000.7318 1083.9603
274802.7517 1083.4457
274682.6767 1083.1336
274591.1426 1082.8955
274379.2905 1082.3444
274364.6584 1082.3063
274167.1675 1081.7923
274046.7027 1081.4787
273954.8077 1081.2394
273742.2064 1080.6855
273728.7881 1080.6506
273529.3350 1080.1307
273410.9404 1079.8220
273316.2277 1079.5750
273102.8812 1079.0185
273093.1369 1078.9930
272889.2644 1078.4609
272775.4053 1078.1636
272675.4127 1077.9025
272461.3249 1077.3432
272457.7204 1077.3338
272246.9659 1076.7830
272140.1132 1076.5036
272032.3729 1076.2218
271822.5556 1075.6730
271817.5461 1075.6598
271602.4497 1075.0969
271505.0789 1074.8419
271387.1184 1074.5330
271187.6575 1074.0105
271171.5542 1073.9683
270955.7258 1073.4026
270870.3172 1073.1787
270739.6593 1072.8361
270553.0396 1072.3466
270523.3608 1072.2687
270306.8044 1071.7003
270235.8427 1071.5140
270090.0056 1071.1311
269918.7161 1070.6811
269872.9758 1070.5609
269655.6952 1069.9899
269601.6691 1069.8479
269438.1672 1069.4179
269284.7009 1069.0143
269220.4091 1068.8451
269002.4082 1068.2714
268967.8101 1068.1803
268784.1539 1067.6967
268651.0072 1067.3461
268565.6703 1067.1212
268346.9530 1066.5448
268334.2790 1066.5114
268127.9753 1065.9675
268017.6481 1065.6765
267908.7691 1065.3893
267701.0918 1064.8413
267689.3348 1064.8102
267469.6408 1064.2302
267384.6362 1064.0057
267249.7148 1063.6493
267068.2618 1063.1698
267029.5614 1063.0675
266809.1596 1062.4848
266751.9834 1062.3336
266588.5165 1061.9013
266435.7972 1061.4972
266367.6467 1061.3168
266146.5406 1060.7315
266119.7014 1060.6604
265925.1829 1060.1452
265803.7092 1059.8234
265703.5994 1059.5581
265487.8030 1058.9860
265481.7902 1058.9701
265259.7227 1058.3812
265172.0089 1058.1485
265037.4278 1057.7913
264856.3054 1057.3106
264814.9079 1057.2007
264592.1440 1056.6091
264540.7065 1056.4725
264369.1400 1056.0166
264225.2109 1055.6341
264145.9117 1055.4232
263922.4544 1054.8290
263909.8120 1054.7954
263698.7435 1054.2339
263594.5293 1053.9565
263474.8089 1053.6378
263279.3424 1053.1174
263250.6506 1053.0409
263026.2456 1052.4431
262964.2695 1052.2780
262801.6066 1051.8444
262649.3027 1051.4383
262576.7445 1051.2448
262351.6529 1050.6444
262334.4399 1050.5985
262126.3112 1050.0430
262019.6975 1049.7584
261900.7469 1049.4407
261705.0567 1048.9181
261674.9601 1048.8376
261448.9287 1048.2336
261390.5344 1048.0775
261222.6638 1047.6287
261076.1240 1047.2367
260996.1766 1047.0229
260769.4644 1046.4162
260761.8204 1046.3957
260542.5001 1045.8086
260447.6440 1045.5545
260315.3138 1045.2001
260133.5741 1044.7131
260087.9056 1044.5907
259860.2602 1043.9805
259819.6226 1043.8715
259632.3758 1043.3693
259505.7916 1043.0297
259404.2697 1042.7572
259192.0696 1042.1876
259175.9418 1042.1443
258947.3661 1041.5305
258878.4758 1041.3454
258718.5626 1040.9157
258564.9969 1040.5030
258489.5375 1040.3001
258260.2874 1039.6836
258251.6314 1039.6603
258030.7869 1039.0662
257938.3976 1038.8175
257801.0647 1038.4478
257625.2762 1037.9745
257571.1207 1037.8286
257340.9440 1037.2085
257312.2753 1037.1313
257110.5247 1036.5875
256999.4019 1036.2879
256879.8834 1035.9656
256686.6425 1035.4443
256649.0201 1035.3428
256417.9177 1034.7190
256374.0088 1034.6005
256186.5786 1034.0944
256061.4994 1033.7565
255955.0171 1033.4688
255749.1052 1032.9124
255723.2331 1032.8424
255491.2053 1032.2151
255436.8401 1032.0680
255258.9447 1031.5868
255124.6972 1031.2235
255026.4610 1030.9576
254812.6700 1030.3788
254793.7540 1030.3275
254560.8003 1029.6965
254500.7738 1029.5339
254327.6155 1029.0646
254188.9984 1028.6888
254094.2067 1028.4317
253877.3390 1027.8435
253860.5736 1027.7980
253626.6923 1027.1633
253565.8108 1026.9980
253392.5797 1026.5276
253254.4027 1026.1523
253158.2419 1025.8911
252943.1105 1025.3065
252923.6785 1025.2537
252688.8672 1024.6152
252631.9481 1024.4604
252453.8221 1023.9759
252320.9059 1023.6142
252218.5504 1023.3356
252009.9790 1022.7678
251983.0516 1022.6944
251747.3066 1022.0523
251699.1788 1021.9211
251511.3233 1021.4091
251388.4999 1021.0743
251275.1116 1020.7651
251077.9350 1020.2273
251038.6710 1020.1201
250801.9877 1019.4742
250767.4924 1019.3800
250565.0592 1018.8273
250457.1725 1018.5326
250327.9003 1018.1794
250146.9654 1017.6850
250090.5105 1017.5306
249852.8828 1016.8809
249836.8742 1016.8371
249615.0010 1016.2301
249526.9081 1015.9890
249376.8864 1015.5784
249217.0527 1015.1407
249138.5385 1014.9257
248907.3074 1014.2922
248899.9566 1014.2721
248661.1149 1013.6174
248597.6866 1013.4435
248422.0349 1012.9617
248288.1759 1012.5945
248182.7187 1012.3051
247978.7728 1011.7453
247943.1657 1011.6475
247703.3616 1010.9889
247669.4844 1010.8958
247463.3049 1010.3293
247360.3099 1010.0462
247223.0090 1009.6686
247051.2401 1009.1962
246982.4730 1009.0070
246742.2738 1008.3460
246741.6960 1008.3444
246500.6503 1007.6807
246433.4256 1007.4956
246259.3616 1007.0160
246124.6788 1006.6449
246017.8292 1006.3503
245816.0321 1005.7939
245776.0522 1005.6836
245534.0188 1005.0159
245507.4902 1004.9426
245291.7228 1004.3470
245199.0549 1004.0911
245049.1790 1003.6771
244890.7156 1003.2393
244806.3865 1003.0062
244582.4710 1002.3872
244563.3442 1002.3343
244320.0323 1001.6612
244274.3300 1001.5348
244076.4606 1000.9871
243966.2849 1000.6820
243832.6357 1000.3119
243658.3300 999.8290
243588.5562 999.6356
243350.4635 998.9756
243344.2210 998.9583
243099.6056 998.2798
243042.6967 998.1219
242854.7294 997.6003
242735.0164 997.2679
242609.5936 996.9196
242427.4194 996.4135
242364.1969 996.2379
242119.9040 995.5588
242118.5379 995.5550
241872.5905 994.8710
241812.4817 994.7037
241626.3775 994.1858
241505.1375 993.8483
241379.8978 993.4995
241197.8691 992.9924
241133.1501 992.8121
240890.6747 992.1362
240886.1327 992.1236
240638.8213 991.4338
240583.5643 991.2796
240391.2353 990.7428
240276.5246 990.4226
240143.3749 990.0507
239969.5525 989.5651
239895.2385 989.3575
239662.6459 988.7073
239646.8244 988.6630
239398.1133 987.9673
239355.8117 987.8490
239149.1144 987.2704
239049.0419 986.9902
238899.8326 986.5723
238742.3308 986.1310
238650.2661 985.8730
238435.6760 985.2714
238400.4129 985.1725
238150.2624 984.4707
238129.0797 984.4112
237899.8067 983.7676
237822.5424 983.5506
237649.0587 983.0633
237516.0541 982.6895
237398.0164 982.3577
237209.6122 981.8278
237146.6778 981.6508
236903.2144 980.9657
236895.0408 980.9427
236643.0836 980.2332
236596.8677 980.1030
236390.8205 979.5224
236290.5613 979.2398
236138.2526 978.8103
235984.2909 978.3760
235885.3778 978.0969
235678.0538 977.5116
235632.1938 977.3821
235378.6955 976.6660
235371.8488 976.6467
235124.8639 975.9485
235065.6808 975.7811
234870.7163 975.2296
234759.5378 974.9150
234616.2502 974.5094
234453.4168 974.0482
234361.4634 973.7877
234147.3150 973.1808
234106.3533 973.0647
233850.9133 972.3403
233841.2313 972.3128
233595.1273 971.6143
233535.1692 971.4441
233339.0106 970.8870
233229.1172 970.5748
233082.5604 970.1582
232923.0724 969.7047
232825.7743 969.4279
232617.0317 968.8339
232568.6495 968.6962
232311.1833 967.9630
232310.9920 967.9625
232053.3518 967.2282
232004.9599 967.0903
231795.1734 966.4920
231698.9223 966.2173
231536.6454 965.7542
231392.8763 965.3436
231277.7648 965.0148
231086.8185 964.4692
231018.5289 964.2740
230780.7457 963.5939
230758.9345 963.5315
230498.9680 962.7875
230474.6595 962.7179
230238.6275 962.0418
230168.5558 961.8410
229977.9196 961.2945
229862.4272 960.9633
229716.8413 960.5456
229556.2704 960.0848
