SF_Version 0.9.3
19-Aug-2024 12:36:46
Temp(K) Pressure(MPa) Temp(K) Pressure(MPa)  Points 
179.8000 807.0000 269.9755 204.0000 2108.0000
###########################################################
D H (J/kg)  D S (J/(K*kg)
41702.0752 231.9359
41724.8438 231.9556
41729.5570 231.9597
41747.6144 231.9754
41757.0463 231.9836
41770.3872 231.9952
41784.5432 232.0075
41793.1620 232.0149
41812.0475 232.0313
41815.9389 232.0347
41838.7179 232.0545
41839.5594 232.0552
41861.4990 232.0743
41867.0788 232.0792
41884.2821 232.0941
41894.6058 232.1031
41907.0673 232.1139
41922.1403 232.1270
41929.8546 232.1337
41949.6823 232.1510
41952.6440 232.1536
41975.4354 232.1734
41977.2319 232.1750
41998.2289 232.1932
42004.7891 232.1989
42021.0245 232.2131
42032.3538 232.2229
42043.8222 232.2329
42059.9261 232.2470
42066.6219 232.2528
42087.5059 232.2710
42089.4238 232.2727
42112.2276 232.2926
42115.0933 232.2951
42135.0336 232.3124
42142.6884 232.3191
42157.8417 232.3323
42170.2910 232.3432
42180.6518 232.3522
42197.9012 232.3673
42203.4640 232.3722
42225.5190 232.3914
42226.2783 232.3921
42249.0946 232.4120
42253.1445 232.4155
42271.9131 232.4319
42280.7776 232.4397
42294.7336 232.4519
42308.4183 232.4638
42317.5562 232.4718
42336.0666 232.4880
42340.3809 232.4918
42363.2077 232.5117
42363.7225 232.5122
42386.0365 232.5317
42391.3861 232.5364
42408.8674 232.5517
42419.0574 232.5606
42431.7004 232.5717
42446.7364 232.5849
42454.5355 232.5917
42474.4230 232.6091
42477.3727 232.6117
42500.2120 232.6317
42502.1172 232.6334
42523.0534 232.6517
42529.8192 232.6577
42545.8968 232.6718
42557.5289 232.6820
42568.7424 232.6918
42585.2463 232.7063
42591.5900 232.7118
42612.9713 232.7306
42614.4397 232.7319
42637.2915 232.7519
42640.7042 232.7549
42660.1454 232.7720
42668.4447 232.7793
42683.0015 232.7921
42696.1930 232.8037
42705.8596 232.8122
42723.9490 232.8281
42728.7198 232.8323
42751.5821 232.8524
42751.7128 232.8525
42774.4465 232.8725
42779.4843 232.8769
42797.3130 232.8926
42807.2637 232.9013
42820.1817 232.9127
42835.0508 232.9258
42843.0524 232.9328
42862.8456 232.9502
42865.9253 232.9530
42888.8002 232.9731
42890.6483 232.9747
42911.6773 232.9933
42918.4589 232.9992
42934.5565 233.0134
42946.2772 233.0238
42957.4378 233.0336
42974.1034 233.0483
42980.3213 233.0538
43001.9374 233.0728
43003.2069 233.0740
43026.0946 233.0941
43029.7793 233.0974
43048.9844 233.1143
43057.6290 233.1220
43071.8763 233.1346
43085.4866 233.1466
43094.7705 233.1548
43113.3521 233.1712
43117.6667 233.1750
43140.5651 233.1952
43141.2255 233.1958
43163.4656 233.2155
43169.1069 233.2205
43186.3683 233.2357
43196.9961 233.2451
43209.2731 233.2560
43224.8933 233.2698
43232.1801 233.2762
43252.7984 233.2945
43255.0892 233.2965
43278.0005 233.3168
43280.7115 233.3192
43300.9140 233.3371
43308.6326 233.3439
43323.8296 233.3574
43336.5616 233.3687
43346.7474 233.3777
43364.4987 233.3934
43369.6674 233.3980
43392.4437 233.4182
43392.5895 233.4183
43415.5139 233.4387
43420.3968 233.4430
43438.4404 233.4590
43448.3579 233.4678
43461.3691 233.4793
43476.3271 233.4926
43484.3000 233.4997
43504.3043 233.5175
43507.2331 233.5201
43530.1684 233.5404
43532.2896 233.5423
43553.1059 233.5608
43560.2831 233.5672
43576.0456 233.5812
43588.2846 233.5921
43598.9876 233.6016
43616.2942 233.6170
43621.9317 233.6220
43644.3120 233.6419
43644.8781 233.6424
43667.8267 233.6629
43672.3379 233.6669
43690.7775 233.6833
43700.3720 233.6918
43713.7306 233.7037
43728.4143 233.7168
43736.6859 233.7242
43756.4648 233.7418
43759.6435 233.7446
43782.6034 233.7651
43784.5235 233.7668
43805.5654 233.7856
43812.5904 233.7918
43828.5298 233.8061
43840.6656 233.8169
43851.4964 233.8265
43868.7490 233.8419
43874.4653 233.8470
43896.8407 233.8670
43897.4364 233.8676
43920.4099 233.8881
43924.9407 233.8921
43943.3856 233.9086
43953.0490 233.9172
43966.3636 233.9291
43981.1657 233.9424
43989.3440 233.9497
44009.2906 233.9675
44012.3266 233.9702
44035.3116 233.9908
44037.4240 233.9927
44058.2989 234.0114
44065.5658 234.0179
44081.2884 234.0319
44093.7159 234.0431
44104.2804 234.0525
44121.8744 234.0683
44127.2746 234.0731
44150.0414 234.0935
44150.2713 234.0937
44173.2702 234.1144
44178.2168 234.1188
44196.2715 234.1350
44206.4007 234.1441
44219.2751 234.1556
44234.5931 234.1694
44242.2811 234.1763
44262.7940 234.1947
44265.2895 234.1969
44288.3003 234.2176
44291.0033 234.2200
44311.3134 234.2383
44319.2213 234.2454
44334.3289 234.2589
44347.4478 234.2707
44357.3468 234.2796
44375.6828 234.2961
44380.3671 234.3003
44403.3898 234.3210
44403.9263 234.3215
44426.4149 234.3417
44432.1786 234.3469
44449.4423 234.3625
44460.4394 234.3724
44472.4722 234.3832
44488.7088 234.3978
44495.5045 234.4040
44516.9869 234.4233
44518.5393 234.4247
44541.5764 234.4455
44545.2736 234.4488
44564.6160 234.4662
44573.5690 234.4743
44587.6579 234.4870
44601.8731 234.4999
44610.7024 234.5078
44630.1859 234.5254
44633.7493 234.5286
44656.7986 234.5494
44658.5073 234.5510
44679.8503 234.5703
44686.8376 234.5766
44702.9045 234.5911
44715.1766 234.6022
44725.9612 234.6119
44743.5243 234.6278
44749.0203 234.6328
44771.8807 234.6535
44772.0819 234.6536
44795.1459 234.6745
44800.2460 234.6791
44818.2124 234.6954
44828.6201 234.7048
44841.2813 234.7163
44857.0030 234.7305
44864.3528 234.7372
44885.3946 234.7562
44887.4267 234.7581
44910.5031 234.7790
44913.7952 234.7820
44933.5820 234.7999
44942.2046 234.8078
44956.6633 234.8209
44970.6228 234.8335
44979.7472 234.8418
44999.0499 234.8593
45002.8335 234.8628
45025.9223 234.8837
45027.4859 234.8852
45049.0136 234.9047
45055.9308 234.9110
45072.1075 234.9257
45084.3846 234.9369
45095.2038 234.9467
45112.8474 234.9627
45118.3026 234.9677
45141.3190 234.9886
45141.4039 234.9887
45164.5077 235.0097
45169.7996 235.0146
45187.6141 235.0308
45198.2892 235.0405
45210.7229 235.0518
45226.7878 235.0665
45233.8343 235.0729
45255.2952 235.0924
45256.9482 235.0939
45280.0645 235.1150
45283.8118 235.1184
45303.1834 235.1361
45312.3373 235.1445
45326.3048 235.1572
45340.8718 235.1705
45349.4288 235.1783
45369.4153 235.1966
45372.5552 235.1994
45395.6842 235.2205
45397.9679 235.2226
45418.8157 235.2417
45426.5295 235.2487
45441.9497 235.2628
45455.1002 235.2748
45465.0863 235.2840
45483.6799 235.3010
45488.2254 235.3051
45511.3670 235.3263
45512.2686 235.3271
45534.5111 235.3475
45540.8666 235.3533
45557.6577 235.3687
45569.4735 235.3795
45580.8069 235.3899
45598.0896 235.4057
45603.9586 235.4111
45626.7147 235.4320
45627.1129 235.4323
45650.2697 235.4536
45655.3490 235.4582
45673.4290 235.4748
45683.9924 235.4845
45696.5908 235.4961
45712.6449 235.5108
45719.7552 235.5173
45741.3065 235.5371
45742.9221 235.5386
45766.0915 235.5599
45769.9774 235.5634
45789.2634 235.5812
45798.6574 235.5898
45812.4379 235.6025
45827.3465 235.6162
45835.6149 235.6238
45856.0447 235.6426
45858.7945 235.6451
45881.9766 235.6664
45884.7522 235.6690
45905.1612 235.6878
45913.4689 235.6954
45928.3483 235.7091
45942.1947 235.7219
45951.5379 235.7305
45970.9297 235.7484
45974.7301 235.7519
45997.9248 235.7732
45999.6739 235.7749
46021.1220 235.7946
46028.4274 235.8014
46044.3218 235.8160
46057.1900 235.8279
46067.5240 235.8374
46085.9619 235.8545
46090.7288 235.8589
46113.9362 235.8803
46114.7429 235.8810
46137.1460 235.9017
46143.5332 235.9076
46160.3583 235.9232
46172.3328 235.9343
46183.5731 235.9446
46201.1416 235.9609
46206.7905 235.9661
46229.9595 235.9875
46230.0104 235.9876
46253.2327 236.0091
46258.7868 236.0142
46276.4576 236.0306
46287.6234 236.0409
46299.6850 236.0521
46316.4691 236.0676
46322.9149 236.0736
46345.3241 236.0944
46346.1473 236.0951
46369.3822 236.1167
46374.1884 236.1211
46392.6195 236.1382
46403.0620 236.1479
46415.8594 236.1598
46431.9448 236.1747
46439.1017 236.1813
46460.8368 236.2015
46462.3466 236.2029
46485.5939 236.2245
46489.7382 236.2283
46508.8437 236.2461
46518.6489 236.2552
46532.0960 236.2677
46547.5688 236.2821
46555.3507 236.2893
46576.4979 236.3090
46578.6080 236.3109
46601.8677 236.3326
46605.4364 236.3359
46625.1298 236.3542
46634.3842 236.3628
46648.3944 236.3759
46663.3412 236.3898
46671.6615 236.3975
46692.3075 236.4167
46694.9311 236.4192
46718.2030 236.4409
46721.2832 236.4437
46741.4774 236.4626
46750.2681 236.4708
46764.7543 236.4843
46779.2623 236.4978
46788.0336 236.5060
46808.2658 236.5248
46811.3154 236.5277
46834.5996 236.5494
46837.2786 236.5519
46857.8863 236.5711
46866.3007 236.5790
46881.1753 236.5929
46895.3322 236.6061
46904.4668 236.6146
46924.3729 236.6332
46927.7608 236.6364
46951.0571 236.6582
46953.4229 236.6604
46974.3559 236.6800
46982.4823 236.6876
46997.6571 236.7018
47011.5510 236.7148
47020.9608 236.7236
47040.6290 236.7420
47044.2668 236.7454
47067.5753 236.7672
47069.7164 236.7692
47090.8862 236.7890
47098.8131 236.7964
47114.1995 236.8109
47127.9192 236.8237
47137.5152 236.8327
47157.0345 236.8510
47160.8333 236.8546
47184.1539 236.8764
47186.1593 236.8783
47207.4768 236.8983
47215.2934 236.9056
47230.8022 236.9202
47244.4369 236.9330
47254.1300 236.9421
47273.5898 236.9603
47277.4602 236.9640
47300.7928 236.9859
47302.7520 236.9877
47324.1278 237.0078
47331.9237 237.0151
47347.4652 237.0297
47361.1048 237.0426
47370.8050 237.0517
47390.2952 237.0700
47394.1472 237.0736
47417.4918 237.0956
47419.4951 237.0975
47440.8389 237.1176
47448.7044 237.1250
47464.1883 237.1395
47477.9231 237.1525
47487.5401 237.1615
47507.1513 237.1800
47510.8944 237.1835
47534.2511 237.2055
47536.3889 237.2075
47557.6101 237.2275
47565.6360 237.2351
47580.9716 237.2495
47594.8925 237.2627
47604.3354 237.2716
47624.1585 237.2903
47627.7017 237.2936
47651.0704 237.3157
47653.4340 237.3179
47674.4415 237.3377
47682.7190 237.3455
47697.8150 237.3598
47712.0135 237.3732
47721.1910 237.3819
47741.3175 237.4009
47744.5693 237.4040
47767.9501 237.4260
47770.6310 237.4286
47791.3332 237.4482
47799.9542 237.4563
47814.7188 237.4703
47829.2868 237.4840
47838.1068 237.4924
47858.6290 237.5118
47861.4972 237.5145
47884.8901 237.5367
47887.9807 237.5396
47908.2853 237.5588
47917.3421 237.5674
47931.6830 237.5810
47946.7131 237.5952
47955.0832 237.6031
47976.0936 237.6230
47978.4857 237.6253
48001.8907 237.6475
48005.4838 237.6509
48025.2981 237.6697
48034.8836 237.6788
48048.7079 237.6919
48064.2931 237.7067
48072.1202 237.7141
48093.7122 237.7346
48095.5350 237.7363
48118.9521 237.7586
48123.1410 237.7626
48142.3717 237.7808
48152.5795 237.7905
48165.7938 237.8031
48182.0277 237.8185
48189.2183 237.8253
48211.4856 237.8465
48212.6453 237.8476
48236.0747 237.8699
48240.9533 237.8745
48259.5066 237.8922
48270.4308 237.9026
48282.9410 237.9145
48299.9179 237.9306
48306.3778 237.9368
48329.4148 237.9587
48329.8171 237.9591
48353.2589 237.9814
48358.9216 237.9868
48376.7031 238.0038
48388.4382 238.0149
48400.1499 238.0261
48417.9646 238.0431
48423.5991 238.0485
48447.0508 238.0708
48447.5008 238.0713
48470.5050 238.0932
48477.0470 238.0994
48493.9617 238.1156
48506.6030 238.1277
48517.4209 238.1380
48536.1689 238.1559
48540.8827 238.1604
48564.3469 238.1828
48565.7447 238.1841
48587.8136 238.2052
48595.3305 238.2124
48611.2829 238.2277
48624.9262 238.2407
48634.7547 238.2501
48654.5319 238.2690
48658.2291 238.2725
48681.7059 238.2950
48684.1476 238.2973
48705.1853 238.3175
48713.7733 238.3257
48728.6673 238.3400
48743.4090 238.3541
48752.1518 238.3625
48773.0548 238.3825
48775.6389 238.3850
48799.1285 238.4075
48802.7106 238.4109
48822.6207 238.4300
48832.3766 238.4393
48846.1154 238.4525
48862.0527 238.4678
48869.6128 238.4751
48891.7388 238.4963
48893.1127 238.4976
48916.6153 238.5202
48921.4352 238.5248
48940.1204 238.5427
48951.1418 238.5533
48963.6281 238.5653
48980.8585 238.5819
48987.1384 238.5879
49010.5854 238.6104
49010.6514 238.6105
49034.1670 238.6331
49040.3226 238.6390
49057.6852 238.6557
49070.0701 238.6677
49081.2060 238.6784
49099.8278 238.6963
49104.7295 238.7010
49128.2557 238.7237
49129.5958 238.7250
49151.7844 238.7463
49159.3743 238.7536
49175.3159 238.7690
49189.1630 238.7823
49198.8500 238.7917
49218.9621 238.8111
49222.3868 238.8144
49245.9263 238.8371
49248.7717 238.8398
49269.4684 238.8598
49278.5917 238.8686
49293.0133 238.8825
49308.4221 238.8974
49316.5609 238.9053
49338.2629 238.9262
49340.1112 238.9280
49363.6642 238.9508
49368.1144 238.9551
49387.2199 238.9735
49397.9764 238.9839
49410.7783 238.9963
49427.8488 239.0128
49434.3396 239.0191
49457.7319 239.0417
49457.9035 239.0419
49481.4702 239.0647
49487.6256 239.0707
49505.0397 239.0875
49517.5299 239.0996
49528.6120 239.1103
49547.4449 239.1286
49552.1870 239.1332
49575.7649 239.1560
49577.3705 239.1576
49599.3455 239.1789
49607.3070 239.1866
49622.9289 239.2018
49637.2541 239.2157
49646.5152 239.2247
49667.2120 239.2448
49670.1043 239.2476
49693.6962 239.2705
49697.1807 239.2739
49717.2909 239.2934
49727.1602 239.3030
49740.8885 239.3163
49757.1506 239.3321
49764.4890 239.3393
49787.1518 239.3613
49788.0923 239.3622
49811.6985 239.3852
49817.1640 239.3905
49835.3076 239.4082
49847.1871 239.4197
49858.9196 239.4311
49877.2211 239.4490
49882.5345 239.4541
49906.1522 239.4772
49907.2661 239.4782
49929.7729 239.5002
49937.3222 239.5075
49953.3965 239.5232
49967.3893 239.5369
49977.0231 239.5463
49997.4674 239.5662
50000.6526 239.5693
50024.2850 239.5924
50027.5566 239.5956
50047.9203 239.6155
50057.6570 239.6250
50071.5587 239.6386
50087.7685 239.6544
50095.2000 239.6617
50117.8912 239.6838
50118.8443 239.6848
50142.4915 239.7079
50148.0251 239.7133
50166.1417 239.7310
50178.1702 239.7428
50189.7950 239.7542
50208.3265 239.7723
50213.4512 239.7774
50237.1105 239.8005
50238.4941 239.8019
50260.7727 239.8237
50268.6730 239.8315
50284.4380 239.8469
50298.8632 239.8611
50308.1063 239.8701
50329.0648 239.8907
50331.7776 239.8933
50355.4520 239.9166
50359.2777 239.9203
50379.1294 239.9398
50389.5021 239.9500
50402.8099 239.9631
50419.7378 239.9797
50426.4934 239.9864
50449.9849 240.0094
50450.1801 240.0096
50473.8697 240.0329
50480.2436 240.0392
50497.5625 240.0562
50510.5138 240.0690
50521.2583 240.0796
50540.7954 240.0988
50544.9573 240.1029
50568.6593 240.1262
50571.0886 240.1286
50592.3644 240.1496
50601.3934 240.1585
50616.0726 240.1730
50631.7097 240.1884
50639.7839 240.1963
50662.0376 240.2183
50663.4984 240.2197
50687.2160 240.2431
50692.3772 240.2482
50710.9367 240.2666
50722.7284 240.2782
50734.6605 240.2900
50753.0912 240.3082
50758.3875 240.3134
50782.1176 240.3369
50783.4658 240.3382
50805.8509 240.3604
50813.8521 240.3683
50829.5873 240.3838
50844.2501 240.3983
50853.3269 240.4073
50874.6599 240.4284
50877.0696 240.4308
50900.8155 240.4544
50905.0815 240.4586
50924.5646 240.4779
50935.5148 240.4887
50948.3168 240.5014
50965.9600 240.5189
50972.0723 240.5250
50995.8309 240.5486
50996.4170 240.5491
51019.5927 240.5721
51026.8859 240.5794
51043.3577 240.5957
51057.3667 240.6096
51067.1259 240.6193
51087.8594 240.6399
51090.8973 240.6430
51114.6719 240.6666
51118.3640 240.6703
51138.4497 240.6902
51148.8806 240.7006
51162.2307 240.7139
51179.4091 240.7310
51186.0150 240.7376
51209.8025 240.7613
51209.9496 240.7614
51233.5931 240.7849
51240.5022 240.7918
51257.3871 240.8087
51271.0667 240.8223
51281.1842 240.8324
51301.6433 240.8528
51304.9846 240.8561
51328.7883 240.8799
51332.2320 240.8833
51352.5951 240.9036
51362.8328 240.9138
51376.4052 240.9274
51393.4456 240.9444
51400.2186 240.9512
51424.0353 240.9750
51424.0705 240.9750
51447.8551 240.9988
51454.7077 241.0057
51471.6783 241.0226
51485.3570 241.0363
51495.5047 241.0465
51516.0184 241.0670
51519.3344 241.0703
51543.1673 241.0942
51546.6921 241.0977
51567.0035 241.1181
51577.3780 241.1285
51590.8429 241.1420
51608.0761 241.1592
51614.6857 241.1659
51638.5318 241.1898
51638.7864 241.1900
51662.3811 241.2137
51669.5092 241.2209
51686.2337 241.2377
51700.2441 241.2517
51710.0895 241.2616
51730.9913 241.2826
51733.9487 241.2856
51757.8112 241.3096
51761.7509 241.3135
51781.6769 241.3336
51792.5228 241.3445
51805.5460 241.3576
51823.3070 241.3754
51829.4184 241.3816
51853.2940 241.4056
51854.1036 241.4064
51877.1730 241.4297
51884.9127 241.4375
51901.0552 241.4537
51915.7342 241.4685
51924.9408 241.4778
51946.5680 241.4996
51948.8297 241.5019
51972.7219 241.5260
51977.4143 241.5307
51996.6173 241.5501
52008.2731 241.5619
52020.5161 241.5742
52039.1444 241.5931
52044.4183 241.5984
52068.3237 241.6225
52070.0281 241.6243
52092.2325 241.6467
52100.9244 241.6555
52116.1445 241.6709
52131.8331 241.6868
52140.0599 241.6951
52162.7544 241.7180
52163.9787 241.7193
52187.9007 241.7435
52193.6883 241.7494
52211.8261 241.7677
52224.6348 241.7807
52235.7548 241.7920
52255.5937 241.8121
52259.6868 241.8162
52283.6221 241.8405
52286.5654 241.8435
52307.5608 241.8648
52317.5496 241.8749
52331.5028 241.8891
52348.5465 241.9064
52355.4482 241.9134
52379.3969 241.9377
52379.5560 241.9379
52403.3488 241.9621
52410.5782 241.9694
52427.3042 241.9864
52441.6131 242.0010
52451.2628 242.0108
52472.6606 242.0326
52475.2249 242.0352
52499.1902 242.0596
52503.7209 242.0642
52523.1589 242.0840
52534.7939 242.0958
52547.1309 242.1084
52565.8796 242.1275
52571.1063 242.1328
52595.0850 242.1573
52596.9780 242.1592
52619.0670 242.1817
52628.0893 242.1909
52643.0523 242.2062
52659.2133 242.2227
52667.0411 242.2307
52690.3501 242.2545
52691.0331 242.2552
52715.0285 242.2797
52721.4997 242.2863
52739.0272 242.3042
52752.6622 242.3182
52763.0293 242.3288
52783.8374 242.3500
52787.0347 242.3533
52811.0435 242.3779
52815.0255 242.3819
52835.0556 242.4024
52846.2265 242.4139
52859.0710 242.4270
52877.4403 242.4459
52883.0898 242.4516
52907.1119 242.4763
52908.6670 242.4779
52931.1374 242.5009
52939.9067 242.5099
52955.1662 242.5255
52971.1592 242.5419
52979.1983 242.5502
53002.4246 242.5740
53003.2338 242.5749
53027.2726 242.5995
53033.7031 242.6061
53051.3148 242.6242
53064.9945 242.6383
53075.3603 242.6489
53096.2988 242.6705
53099.4092 242.6737
53123.4613 242.6984
53127.6161 242.7027
53147.5168 242.7232
53158.9464 242.7349
53171.5757 242.7479
53190.2897 242.7672
53195.6379 242.7727
53219.7034 242.7975
53221.6460 242.7995
53243.7723 242.8223
53253.0154 242.8318
53267.8445 242.8471
53284.3978 242.8642
53291.9200 242.8719
53315.7931 242.8966
53315.9989 242.8968
53340.0811 242.9216
53347.2017 242.9290
53364.1667 242.9465
53378.6233 242.9614
53388.2556 242.9714
53410.0579 242.9939
53412.3478 242.9963
53436.4433 243.0212
53441.5057 243.0264
53460.5422 243.0461
53472.9667 243.0589
53484.6444 243.0710
53504.4406 243.0915
53508.7499 243.0960
53532.8588 243.1209
53535.9278 243.1241
53556.9710 243.1459
53567.4281 243.1567
53581.0865 243.1709
53598.9416 243.1894
53605.2053 243.1959
53629.3275 243.2209
53630.4682 243.2221
53653.4530 243.2459
53662.0081 243.2548
53677.5818 243.2710
53693.5612 243.2875
53701.7140 243.2960
53725.1273 243.3203
53725.8495 243.3211
53749.9883 243.3462
53756.7069 243.3531
53774.1304 243.3712
53788.2996 243.3860
53798.2758 243.3963
53819.9056 243.4188
53822.4246 243.4215
53846.5767 243.4466
53851.5248 243.4517
53870.7321 243.4717
53883.1574 243.4847
53894.8908 243.4969
53914.8032 243.5176
53919.0529 243.5221
53943.2182 243.5472
53946.4623 243.5506
53967.3869 243.5724
53978.1348 243.5836
53991.5589 243.5976
54009.8206 243.6167
54015.7343 243.6229
54039.9129 243.6481
54041.5196 243.6498
54064.0949 243.6733
54073.2322 243.6829
54088.2801 243.6986
54104.9580 243.7160
54112.4687 243.7239
54136.6607 243.7492
54136.6972 243.7492
54160.8559 243.7745
54168.4499 243.7824
54185.0544 243.7998
54200.2160 243.8156
54209.2563 243.8251
54231.9954 243.8489
54233.4615 243.8504
54257.6700 243.8758
54263.7884 243.8822
54281.8818 243.9011
54295.5948 243.9155
54306.0969 243.9265
54327.4146 243.9489
54330.3154 243.9519
54354.5371 243.9773
54359.2479 243.9823
54378.7622 244.0027
54391.0948 244.0157
54402.9905 244.0282
54422.9551 244.0491
54427.2223 244.0536
54451.4573 244.0791
54454.8290 244.0826
54475.6956 244.1045
54486.7164 244.1161
54499.9372 244.1300
54518.6173 244.1497
54524.1822 244.1555
54548.4304 244.1810
54550.5318 244.1832
54572.6820 244.2065
54582.4600 244.2168
54596.9369 244.2321
54614.4017 244.2505
54621.1951 244.2576
54645.4566 244.2832
54646.3570 244.2841
54669.7214 244.3087
54678.3260 244.3178
54693.9896 244.3343
54710.3086 244.3515
54718.2610 244.3599
54742.3047 244.3853
54742.5358 244.3855
54766.8139 244.4112
54774.3147 244.4191
54791.0953 244.4368
54806.3383 244.4529
54815.3800 244.4624
54838.3755 244.4867
54839.6680 244.4881
54863.9593 244.5138
54870.4266 244.5206
54888.2540 244.5395
54902.4914 244.5545
54912.5519 244.5652
54934.5698 244.5885
54936.8532 244.5909
54961.1578 244.6166
54966.6621 244.6224
54985.4657 244.6424
54998.7681 244.6564
55009.7769 244.6681
55030.8879 244.6905
55034.0914 244.6939
55058.4092 244.7196
55063.0215 244.7245
55082.7304 244.7454
55095.1690 244.7586
55107.0548 244.7712
55127.3302 244.7928
55131.3826 244.7971
55155.7137 244.8229
55159.5054 244.8269
55180.0481 244.8487
55191.6944 244.8611
55204.3858 244.8746
55223.8973 244.8953
55228.7269 244.9005
55253.0712 244.9263
55256.1140 244.9296
55277.4188 244.9522
55288.3448 244.9639
55301.7698 244.9782
55320.5894 244.9982
55326.1241 245.0041
55350.4817 245.0300
55352.8479 245.0325
55374.8426 245.0560
55385.1205 245.0669
55399.2069 245.0819
55417.4070 245.1013
55423.5744 245.1079
55447.9453 245.1339
55449.7075 245.1358
55472.3195 245.1599
55482.0220 245.1702
55496.6969 245.1859
55514.3506 245.2047
55521.0778 245.2119
55545.4619 245.2379
55546.6931 245.2393
55569.8493 245.2640
55579.0498 245.2738
55594.2401 245.2901
55611.4205 245.3084
55618.6342 245.3161
55643.0316 245.3422
55643.8053 245.3431
55667.4323 245.3683
55676.2043 245.3777
55691.8364 245.3944
55708.6173 245.4124
55716.2437 245.4206
55740.6544 245.4467
55741.0444 245.4471
55765.0684 245.4729
55773.4858 245.4819
55789.4857 245.4990
55805.9413 245.5167
55813.9064 245.5252
55838.3304 245.5514
55838.4110 245.5515
55862.7576 245.5776
55870.8950 245.5864
55887.1882 245.6038
55903.3931 245.6212
55911.6221 245.6301
55935.9054 245.6562
55936.0594 245.6563
55960.5000 245.6826
55968.4321 245.6911
55984.9438 245.7088
56000.9731 245.7261
56009.3911 245.7351
56033.5282 245.7611
56033.8417 245.7614
56058.2955 245.7877
56066.0978 245.7961
56082.7527 245.8141
56098.6816 245.8312
56107.2132 245.8404
56131.2797 245.8663
56131.6771 245.8667
56156.1442 245.8931
56163.8924 245.9015
56180.6147 245.9195
56196.5193 245.9366
56205.0886 245.9459
56229.1606 245.9718
56229.5658 245.9723
56254.0463 245.9987
56261.8164 246.0071
56278.5301 246.0251
56294.4866 246.0423
56303.0172 246.0515
56327.1711 246.0776
56327.5078 246.0780
56352.0015 246.1045
56359.8703 246.1130
56376.4987 246.1309
56392.5839 246.1483
56400.9992 246.1574
56425.3119 246.1837
56425.5031 246.1839
56450.0102 246.2105
56458.0546 246.2192
56474.5207 246.2370
56490.8118 246.2546
56499.0345 246.2635
56523.5517 246.2901
56523.5834 246.2901
56548.0722 246.3167
56556.3699 246.3257
56572.5960 246.3432
56589.1708 246.3612
56597.1232 246.3698
56621.6538 246.3964
56621.9862 246.3968
56646.1877 246.4231
56654.8164 246.4324
56670.7249 246.4497
56687.6613 246.4681
56695.2654 246.4764
56719.8094 246.5030
56720.5207 246.5038
56744.3566 246.5297
56753.3949 246.5395
56768.9072 246.5564
56786.2838 246.5753
56793.4612 246.5831
56818.0185 246.6098
56819.1874 246.6111
56842.5791 246.6365
56852.1058 246.6469
56867.1431 246.6632
56885.0390 246.6827
56891.7105 246.6900
56916.2812 246.7168
56917.9868 246.7186
56940.8552 246.7435
56950.9497 246.7545
56965.4327 246.7703
56983.9272 246.7905
56990.0135 246.7971
57014.5976 246.8240
57016.9196 246.8265
57039.1851 246.8508
57049.9270 246.8625
57063.7759 246.8776
57082.9491 246.8986
57088.3702 246.9045
57112.9678 246.9314
57115.9862 246.9347
57137.5687 246.9582
57149.0383 246.9708
57162.1730 246.9851
57182.1052 247.0069
57186.7807 247.0120
57211.3917 247.0390
57215.1871 247.0431
57236.0061 247.0659
57248.2841 247.0793
57260.6239 247.0929
57281.3960 247.1156
57285.2451 247.1198
57309.8696 247.1468
57314.5230 247.1519
57334.4975 247.1738
57347.6651 247.1882
57359.1288 247.2008
57380.8222 247.2246
57383.7635 247.2278
57408.4015 247.2548
57413.9944 247.2610
57433.0429 247.2819
57447.1818 247.2974
57457.6877 247.3089
57480.3841 247.3338
57482.3360 247.3360
57506.9875 247.3631
57513.6018 247.3703
57531.6425 247.3902
57546.8347 247.4069
57556.3008 247.4173
57580.0826 247.4434
57580.9626 247.4444
57605.6277 247.4715
57613.3459 247.4800
57630.2962 247.4987
57646.6244 247.5166
57654.9682 247.5258
57679.6435 247.5530
57679.9180 247.5533
57704.3222 247.5802
57713.2272 247.5900
57729.0043 247.6074
57746.5515 247.6267
57753.6898 247.6346
57778.3788 247.6618
57779.8912 247.6635
57803.0711 247.6891
57813.2463 247.7003
57827.7668 247.7163
57846.6167 247.7371
57852.4660 247.7436
57877.1685 247.7709
57880.0025 247.7740
57901.8745 247.7981
57913.4038 247.8109
57926.5838 247.8255
57946.8205 247.8478
57951.2967 247.8528
57976.0129 247.8801
57980.2526 247.8848
58000.7325 247.9074
58013.7004 247.9218
58025.4555 247.9348
58047.1635 247.9588
58050.1820 247.9622
58074.9119 247.9896
58080.6422 247.9959
58099.6452 248.0170
58114.1365 248.0330
58124.3820 248.0444
58147.6463 248.0702
58149.1222 248.0718
58173.8658 248.0992
58181.1719 248.1073
58198.6128 248.1267
58214.7130 248.1446
58223.3633 248.1542
58248.1173 248.1816
58248.2696 248.1818
58272.8746 248.2091
58281.8422 248.2191
58297.6354 248.2366
58315.4303 248.2564
58322.3996 248.2642
58347.1673 248.2917
58349.0341 248.2938
58371.9384 248.3192
58382.6538 248.3312
58396.7130 248.3468
58416.2891 248.3686
58421.4911 248.3744
58446.2726 248.4020
58449.9403 248.4060
58471.0575 248.4296
58483.6074 248.4435
58495.8459 248.4572
58517.2902 248.4811
58520.6378 248.4848
58545.4331 248.5124
58550.9889 248.5186
58570.2319 248.5401
58584.7036 248.5562
58595.0342 248.5678
58618.4340 248.5939
58619.8399 248.5954
58644.6491 248.6231
58652.1806 248.6315
58669.4618 248.6508
58685.9431 248.6692
58694.2779 248.6786
58719.0976 248.7063
58719.7214 248.7070
58743.9207 248.7340
58753.5160 248.7448
58768.7473 248.7618
58787.3265 248.7826
58793.5773 248.7896
58818.4109 248.8174
58821.1530 248.8204
58843.2479 248.8452
58854.9958 248.8583
58868.0885 248.8730
58888.8545 248.8963
58892.9326 248.9008
58917.7801 248.9287
58922.7295 248.9342
58942.6311 248.9565
58956.6207 248.9722
58967.4856 248.9844
58990.5279 249.0102
58992.3437 249.0123
59017.2052 249.0402
59024.4515 249.0483
59042.0703 249.0681
59058.3913 249.0864
59066.9389 249.0960
59091.8110 249.1240
59092.3473 249.1246
59116.6865 249.1519
59126.3198 249.1627
59141.5656 249.1799
59160.3085 249.2010
59166.4483 249.2079
59191.3345 249.2359
59194.3136 249.2392
59216.2242 249.2639
59228.3351 249.2775
59241.1174 249.2919
59262.3729 249.3158
59266.0142 249.3199
59290.9145 249.3480
59296.4273 249.3542
59315.8183 249.3760
59330.4981 249.3926
59340.7257 249.4041
59364.5853 249.4310
59365.6367 249.4322
59390.5511 249.4603
59398.6893 249.4695
59415.4691 249.4884
59432.8096 249.5080
59440.3907 249.5166
59465.3159 249.5447
59466.9465 249.5466
59490.2446 249.5729
59501.1002 249.5852
59515.1768 249.6011
59535.2704 249.6238
59540.1127 249.6292
59565.0521 249.6575
59569.4572 249.6624
59589.9951 249.6857
59603.6609 249.7011
59614.9417 249.7139
59637.8811 249.7399
59639.8918 249.7421
59664.8456 249.7704
59672.1183 249.7786
59689.8029 249.7987
59706.3722 249.8175
59714.7638 249.8270
59739.7283 249.8553
59740.6427 249.8563
59764.6964 249.8836
59774.9304 249.8952
59789.6681 249.9119
59809.2348 249.9341
59814.6435 249.9403
59839.6224 249.9686
59843.5561 249.9731
59864.6049 249.9970
59877.8944 250.0121
59889.5911 250.0254
59912.2496 250.0511
59914.5809 250.0538
59939.5743 250.0822
59946.6219 250.0902
59964.5713 250.1106
59981.0112 250.1293
59989.5720 250.1391
60014.5764 250.1675
60015.4175 250.1685
60039.5843 250.1960
60049.8411 250.2077
60064.5959 250.2245
60084.2816 250.2469
60089.6112 250.2530
60114.6301 250.2815
60118.7394 250.2862
60139.6527 250.3100
60153.2144 250.3255
60164.6789 250.3386
60187.7066 250.3648
60189.7088 250.3671
60214.7424 250.3957
60222.2161 250.4042
60239.7796 250.4243
60256.7429 250.4437
60264.8206 250.4529
60289.8653 250.4815
60291.2869 250.4831
60314.9135 250.5101
60325.8485 250.5226
60339.9655 250.5388
60360.4274 250.5622
60365.0213 250.5674
60390.0807 250.5961
60395.0237 250.6018
60415.1438 250.6248
60429.6376 250.6414
60440.2107 250.6535
60464.2688 250.6810
60465.2813 250.6822
60490.3555 250.7109
60498.9177 250.7208
60515.4335 250.7397
60533.5842 250.7605
60540.5153 250.7684
60565.6008 250.7972
60568.2682 250.8003
60590.6900 250.8260
60602.9700 250.8401
60615.7830 250.8548
60637.6893 250.8800
60640.8798 250.8836
60665.9803 250.9125
60672.4264 250.9199
60691.0845 250.9413
60707.1814 250.9598
60716.1926 250.9702
60741.3044 250.9991
60741.9539 250.9998
60766.4200 251.0280
60776.7446 251.0398
60791.5394 251.0569
60811.5529 251.0799
60816.6626 251.0858
60841.7896 251.1147
60846.3792 251.1200
60866.9203 251.1437
60881.2236 251.1602
60892.0549 251.1726
60916.0857 251.2004
60917.1934 251.2016
60942.3356 251.2306
60950.9661 251.2406
60967.4816 251.2596
60985.8644 251.2809
60992.6315 251.2887
61017.7852 251.3177
61020.7808 251.3212
61042.9428 251.3468
61055.7155 251.3615
61068.1042 251.3758
61090.6682 251.4019
61093.2695 251.4049
61118.4386 251.4340
61125.6392 251.4424
61143.6115 251.4632
61160.6285 251.4828
61168.7884 251.4923
61193.9692 251.5214
61195.6360 251.5234
61219.1538 251.5506
61230.6620 251.5639
61244.3423 251.5798
61265.7062 251.6045
61269.5347 251.6090
61294.7310 251.6382
61300.7689 251.6452
61319.9312 251.6674
61335.8501 251.6859
61345.1353 251.6967
61370.3434 251.7259
61370.9497 251.7266
61395.5554 251.7552
61406.0680 251.7674
61420.7712 251.7845
61441.2048 251.8082
61445.9911 251.8138
61471.2149 251.8431
61476.3602 251.8491
61496.4426 251.8724
61511.5343 251.8900
61521.6743 251.9018
61546.7270 251.9309
61546.9100 251.9311
61572.1496 251.9605
61581.9387 251.9719
61597.3932 251.9899
61617.1690 252.0130
61622.6408 252.0193
61647.8924 252.0488
61652.4182 252.0540
61673.1479 252.0782
61687.6863 252.0952
61698.4074 252.1077
61722.9731 252.1363
61723.6711 252.1371
61748.9386 252.1666
61758.2792 252.1775
61774.2102 252.1961
61793.6041 252.2188
61799.4858 252.2257
61824.7655 252.2552
61828.9481 252.2601
61850.0491 252.2848
61864.3113 252.3014
61875.3369 252.3143
61899.6934 252.3428
61900.6287 252.3439
61925.9245 252.3735
61935.0949 252.3842
61951.2244 252.4031
61970.5155 252.4257
61976.5284 252.4328
62001.8364 252.4624
62005.9554 252.4672
62027.1485 252.4921
62041.4146 252.5088
62052.4648 252.5218
62076.8931 252.5504
62077.7851 252.5515
62103.1095 252.5812
62112.3912 252.5921
62128.4380 252.6109
62147.9085 252.6338
62153.7707 252.6407
62179.1075 252.6704
62183.4454 252.6755
62204.4483 252.7002
62219.0019 252.7173
62229.7934 252.7300
62254.5778 252.7591
62255.1426 252.7598
62280.4959 252.7896
62290.1735 252.8010
62305.8533 252.8195
62325.7888 252.8430
62331.2150 252.8493
62356.5808 252.8792
62361.4238 252.8849
62381.9508 252.9091
62397.0786 252.9269
62407.3249 252.9390
62432.7033 252.9690
62432.7531 252.9690
62458.0858 252.9989
62468.4477 253.0111
62483.4726 253.0289
62504.1619 253.0533
62508.8636 253.0588
62534.2587 253.0888
62539.8962 253.0955
62559.6581 253.1188
62575.6505 253.1377
62585.0618 253.1489
62610.4697 253.1789
62611.4247 253.1800
62635.8817 253.2090
62647.2193 253.2224
62661.2981 253.2391
62683.0337 253.2648
62686.7187 253.2691
62712.1436 253.2993
62718.8685 253.3072
62737.5727 253.3294
62754.7234 253.3497
62763.0062 253.3595
62788.4439 253.3897
62790.5986 253.3922
62813.8859 253.4199
62826.4942 253.4348
62839.3322 253.4501
62862.4100 253.4775
62864.7828 253.4803
62890.2377 253.5105
62898.3465 253.5201
62915.6969 253.5408
62934.3033 253.5629
62941.1605 253.5710
62966.6285 253.6013
62970.2805 253.6056
62992.1007 253.6316
63006.2785 253.6485
63017.5773 253.6619
63042.2969 253.6913
63043.0583 253.6922
63068.5435 253.7226
63078.3362 253.7343
63094.0332 253.7530
63114.3960 253.7772
63119.5273 253.7833
63145.0257 253.8137
63150.4767 253.8202
63170.5285 253.8442
63186.5782 253.8633
63196.0358 253.8746
63221.5475 253.9051
63222.7004 253.9064
63247.0635 253.9355
63258.8438 253.9496
63272.5839 253.9660
63295.0079 253.9928
63298.1089 253.9965
63323.6382 254.0270
63331.1932 254.0361
63349.1719 254.0576
63367.3995 254.0794
63374.7102 254.0881
63400.2529 254.1187
63403.6269 254.1228
63425.8000 254.1493
63439.8756 254.1662
63451.3516 254.1799
63476.1453 254.2096
63476.9078 254.2105
63502.4684 254.2412
63512.4365 254.2531
63528.0334 254.2719
63548.7488 254.2967
63553.6031 254.3025
63579.1771 254.3332
63585.0827 254.3403
63604.7557 254.3640
63621.4379 254.3840
63630.3389 254.3947
63655.9266 254.4254
63657.8145 254.4277
63681.5188 254.4562
63694.2129 254.4715
63707.1155 254.4870
63730.6326 254.5153
63732.7169 254.5178
63758.3228 254.5486
63767.0742 254.5592
63783.9332 254.5795
63803.5374 254.6031
63809.5483 254.6103
63835.1679 254.6412
63840.0223 254.6471
63860.7921 254.6721
63876.5291 254.6911
63886.4209 254.7030
63912.0544 254.7340
63913.0575 254.7352
63937.6923 254.7649
63949.6082 254.7793
63963.3350 254.7959
63986.1806 254.8235
63988.9824 254.8269
64014.6343 254.8579
64022.7751 254.8677
64040.2908 254.8889
64059.3917 254.9120
64065.9521 254.9200
64091.6180 254.9510
64096.0304 254.9564
64117.2886 254.9821
64132.6913 255.0008
64142.9638 255.0132
64168.6438 255.0443
64169.3743 255.0452
64194.3284 255.0755
64206.0799 255.0897
64220.0177 255.1066
64242.8076 255.1343
64245.7118 255.1378
64271.4106 255.1690
64279.5578 255.1789
64297.1141 255.2002
64316.3305 255.2235
64322.8223 255.2314
64348.5353 255.2627
64353.1256 255.2682
64374.2530 255.2939
64389.9434 255.3130
64399.9755 255.3252
64425.7028 255.3565
64426.7837 255.3578
64451.4347 255.3879
64463.6469 255.4027
64477.1715 255.4192
64500.5326 255.4477
64502.9132 255.4506
64528.6595 255.4819
64537.4413 255.4926
64554.4107 255.5133
64574.3728 255.5377
64580.1667 255.5448
64605.9276 255.5762
64611.3272 255.5828
64631.6932 255.6076
64648.3046 255.6279
64657.4637 255.6391
64683.2391 255.6706
64685.3049 255.6731
64709.0192 255.7021
64722.3286 255.7184
64734.8042 255.7337
64759.3751 255.7637
64760.5942 255.7652
64786.3890 255.7968
64796.4451 255.8091
64812.1886 255.8284
64833.5382 255.8545
64837.9932 255.8600
64863.8027 255.8916
64870.6547 255.9000
64889.6170 255.9233
64907.7945 255.9456
64915.4363 255.9549
64941.2606 255.9866
64944.9577 255.9912
64967.0897 256.0183
64982.1446 256.0368
64992.9238 256.0501
65018.7629 256.0818
65019.3548 256.0825
65044.6068 256.1136
65056.5889 256.1283
65070.4557 256.1454
65093.8465 256.1741
65096.3097 256.1772
65122.1686 256.2090
65131.1280 256.2200
65148.0324 256.2408
65168.4331 256.2660
65173.9013 256.2727
65199.7752 256.3046
65205.7621 256.3120
65225.6541 256.3365
65243.1151 256.3580
65251.5380 256.3684
65277.4270 256.4003
65280.4920 256.4041
65303.3209 256.4323
65317.8931 256.4503
65329.2199 256.4643
65355.1240 256.4963
65355.3180 256.4965
65381.0331 256.5283
65392.7674 256.5428
65406.9473 256.5604
65430.2407 256.5892
65432.8666 256.5924
65458.7909 256.6245
65467.7386 256.6356
65484.7203 256.6566
65505.2606 256.6821
65510.6549 256.6887
65536.5945 256.7209
65542.8071 256.7286
65562.5392 256.7530
65580.3781 256.7752
65588.4891 256.7852
65614.4441 256.8174
65617.9735 256.8218
65640.4042 256.8497
65655.5937 256.8685
65666.3695 256.8819
65692.3400 256.9142
65693.2382 256.9153
65718.3155 256.9465
65730.9078 256.9621
65744.2963 256.9788
65768.6019 257.0090
65770.2823 257.0111
65796.2734 257.0434
65806.3211 257.0559
65822.2697 257.0758
65844.0650 257.1029
65848.2712 257.1082
65874.2780 257.1406
65881.8340 257.1500
65900.2899 257.1730
65919.6279 257.1971
65926.3071 257.2055
65952.3295 257.2379
65957.4469 257.2443
65978.3571 257.2704
65995.2912 257.2916
66004.3900 257.3029
66030.4282 257.3355
66033.1606 257.3389
66056.4716 257.3680
66071.0554 257.3863
66082.5203 257.4006
66108.5743 257.4332
66108.9753 257.4337
66134.6335 257.4658
66146.9210 257.4812
66160.6981 257.4985
66184.8918 257.5288
66186.7680 257.5311
66212.8432 257.5638
66222.8885 257.5764
66238.9237 257.5965
66260.9105 257.6241
66265.0096 257.6292
66291.1008 257.6620
66298.9584 257.6718
66317.1973 257.6947
66337.0320 257.7196
66343.2992 257.7275
66369.4065 257.7603
66375.1314 257.7675
66395.5191 257.7931
66413.2567 257.8154
66421.6371 257.8260
66447.7606 257.8588
66451.4078 257.8634
66473.8894 257.8917
66489.5852 257.9115
66500.0236 257.9246
66526.1633 257.9576
66527.7883 257.9596
66552.3083 257.9905
66566.0180 258.0078
66578.4588 258.0235
66604.2735 258.0561
66604.6148 258.0565
66630.7762 258.0895
66642.5557 258.1044
66656.9430 258.1226
66680.8639 258.1528
66683.1154 258.1556
66709.2932 258.1887
66719.1988 258.2012
66735.4765 258.2218
66757.5601 258.2497
66761.6653 258.2549
66787.8596 258.2881
66795.9480 258.2983
66814.0594 258.3213
66834.3625 258.3470
66840.2648 258.3545
66866.4757 258.3877
66872.8037 258.3957
66892.6921 258.4209
66911.2718 258.4445
66918.9141 258.4542
66945.1417 258.4874
66949.7666 258.4933
66971.3747 258.5207
66988.2885 258.5422
66997.6135 258.5541
67023.8578 258.5874
67026.8372 258.5912
67050.1076 258.6208
67065.4133 258.6402
67076.3631 258.6542
67102.6243 258.6876
67104.0162 258.6893
67128.8910 258.7210
67142.6466 258.7385
67155.1633 258.7545
67181.3040 258.7878
67181.4414 258.7879
67207.7250 258.8214
67219.9892 258.8371
67234.0144 258.8550
67258.7015 258.8865
67260.3095 258.8885
67286.6101 258.9221
67297.4416 258.9359
67312.9165 258.9557
67336.2091 258.9854
67339.2287 258.9893
67365.5465 259.0229
67375.0044 259.0350
67391.8700 259.0566
67413.8274 259.0847
67418.1994 259.0902
67444.5344 259.1240
67452.6783 259.1344
67470.8752 259.1577
67491.5570 259.1842
67497.2218 259.1914
67523.5741 259.2252
67530.4638 259.2340
67549.9322 259.2590
67569.3987 259.2840
67576.2962 259.2928
67602.6659 259.3266
67608.3617 259.3340
67629.0414 259.3605
67647.3530 259.3840
67655.4228 259.3944
67681.8101 259.4283
67686.3725 259.4342
67708.2031 259.4622
67725.4205 259.4844
67734.6021 259.4962
67761.0069 259.5302
67764.4969 259.5346
67787.4175 259.5642
67803.6020 259.5850
67813.8341 259.5982
67840.2567 259.6322
67842.7355 259.6354
67866.6850 259.6663
67881.8980 259.6859
67893.1194 259.7004
67919.5597 259.7345
67921.0890 259.7365
67946.0058 259.7686
67960.3093 259.7871
67972.4580 259.8028
67998.9163 259.8370
67999.5582 259.8378
68025.3803 259.8712
68038.8365 259.8886
68051.8504 259.9054
68078.1436 259.9395
68078.3267 259.9397
68104.8087 259.9740
68117.4803 259.9904
68131.2969 260.0083
68156.8460 260.0414
68157.7912 260.0426
68184.2914 260.0770
68196.2415 260.0925
68210.7977 260.1113
68235.6661 260.1436
68237.3102 260.1457
68263.8286 260.1802
68275.1206 260.1948
68290.3532 260.2146
68314.6045 260.2461
68316.8840 260.2491
68343.4208 260.2836
68354.1184 260.2975
68369.9637 260.3181
68393.6619 260.3489
68396.5129 260.3526
68423.0681 260.3872
68433.2357 260.4004
68449.6295 260.4218
68472.8392 260.4520
68476.1972 260.4564
68502.7710 260.4910
68512.4731 260.5037
68529.3510 260.5257
68552.1370 260.5554
68555.9372 260.5604
68582.5297 260.5951
68591.8314 260.6073
68609.1284 260.6299
68631.5560 260.6592
68635.7334 260.6646
68662.3446 260.6994
68671.3113 260.7111
68688.9621 260.7342
68711.0971 260.7632
68715.5860 260.7691
68742.2161 260.8039
68750.9137 260.8153
68768.8525 260.8388
68790.7609 260.8675
68795.4954 260.8737
68822.1445 260.9086
68830.6392 260.9198
68848.8000 260.9436
68870.5483 260.9721
68875.4619 260.9786
68902.1301 261.0136
68910.4886 261.0246
68928.8048 261.0486
68950.4600 261.0771
68955.4859 261.0837
68982.1734 261.1188
68990.4628 261.1297
69008.8673 261.1539
69030.4969 261.1824
69035.5678 261.1890
69062.2746 261.2242
69070.5625 261.2351
69088.9879 261.2594
69110.6596 261.2879
69115.7078 261.2946
69142.4342 261.3298
69150.7885 261.3408
69169.1670 261.3651
69190.9491 261.3938
69195.9065 261.4004
69222.6525 261.4357
69231.1417 261.4469
69249.4050 261.4710
69271.3662 261.5001
69276.1642 261.5064
69302.9299 261.5418
69311.6229 261.5533
69329.7022 261.5772
69351.9117 261.6066
69356.4813 261.6127
69383.2668 261.6481
69392.2329 261.6600
69410.0591 261.6836
69432.5864 261.7135
69436.8581 261.7191
69463.6637 261.7547
69472.9726 261.7670
69490.4760 261.7903
69513.3913 261.8207
69517.2951 261.8259
69544.1209 261.8615
69553.8429 261.8744
69570.9534 261.8971
69594.3272 261.9282
69597.7927 261.9328
69624.6388 261.9685
69634.8446 261.9821
69651.4916 262.0043
69675.3949 262.0361
69678.3514 262.0400
69705.2178 262.0758
69715.9787 262.0901
69732.0912 262.1116
69756.5955 262.1443
69758.9715 262.1475
69785.8585 262.1833
69797.2461 262.1985
69812.7525 262.2192
69837.9298 262.2528
69839.6534 262.2551
69866.5612 262.2911
69878.6476 262.3072
69893.4760 262.3271
69919.3988 262.3617
69920.3978 262.3631
69947.3264 262.3991
69960.1844 262.4163
69974.2621 262.4351
70001.0035 262.4710
70001.2049 262.4712
70028.1546 262.5073
70041.8572 262.5257
70055.1114 262.5435
70082.0753 262.5796
70082.7447 262.5805
70109.0462 262.6158
70123.6671 262.6355
70136.0242 262.6520
70163.0094 262.6883
70164.6236 262.6905
70190.0017 262.7246
70205.6151 262.7456
70217.0011 262.7609
70244.0078 262.7972
70246.6411 262.8008
70271.0216 262.8336
70287.7023 262.8560
70298.0426 262.8700
70325.0709 262.9064
70328.7982 262.9114
70352.1064 262.9428
70369.9295 262.9669
70379.1492 262.9793
70406.1993 263.0158
70411.0960 263.0224
70433.2566 263.0523
70452.2980 263.0780
70460.3213 263.0889
70487.3934 263.1255
70493.5354 263.1338
70514.4728 263.1621
70534.8086 263.1896
70541.5596 263.1987
70568.6538 263.2354
70576.1177 263.2455
70595.7554 263.2721
70617.4627 263.3015
70622.8645 263.3088
70649.9811 263.3456
70658.8439 263.3576
70677.1051 263.3824
70700.2612 263.4138
70704.2367 263.4192
70731.3757 263.4560
70741.7150 263.4701
70758.5223 263.4929
70783.2052 263.5265
70785.6766 263.5298
70812.8383 263.5667
70824.7323 263.5829
70840.0077 263.6037
70866.2960 263.6395
70867.1848 263.6407
70894.3694 263.6777
70907.8970 263.6962
70921.5618 263.7148
70948.7620 263.7519
70949.5346 263.7529
70975.9697 263.7890
70991.2100 263.8098
71003.1853 263.8261
71030.4086 263.8633
71032.9225 263.8667
71057.6397 263.9005
71074.6728 263.9238
71084.8786 263.9377
71112.1254 263.9750
71116.4606 263.9809
71139.3800 264.0123
71158.2864 264.0382
71166.6425 264.0496
71193.9129 264.0870
71200.1502 264.0955
71221.1912 264.1244
71242.0522 264.1530
71248.4775 264.1618
71275.7718 264.1992
71283.9925 264.2105
71303.0740 264.2367
71325.9713 264.2681
71330.3844 264.2742
71357.7027 264.3117
