SF_Version 0.9.3
03-Sep-2024 23:12:15 
Temp(K) Pressure(MPa)
201.9335 670.8401
201.9878 670.5000
202.0000 670.4232
202.0674 670.0000
202.1000 669.7953
202.1470 669.5000
202.2000 669.1672
202.2266 669.0000
202.3000 668.5389
202.3062 668.5000
202.3858 668.0000
202.4000 667.9106
202.4653 667.5000
202.5000 667.2821
202.5449 667.0000
202.6000 666.6535
202.6244 666.5000
202.7000 666.0248
202.7039 666.0000
202.7834 665.5000
202.8000 665.3959
202.8629 665.0000
202.9000 664.7669
202.9424 664.5000
203.0000 664.1378
203.0219 664.0000
203.1000 663.5086
203.1014 663.5000
203.1808 663.0000
203.2000 662.8792
203.2602 662.5000
203.3000 662.2497
203.3397 662.0000
203.4000 661.6201
203.4191 661.5000
203.4985 661.0000
203.5000 660.9904
203.5779 660.5000
203.6000 660.3605
203.6572 660.0000
203.7000 659.7306
203.7366 659.5000
203.8000 659.1005
203.8159 659.0000
203.8953 658.5000
203.9000 658.4702
203.9746 658.0000
204.0000 657.8399
204.0539 657.5000
204.1000 657.2094
204.1332 657.0000
204.2000 656.5787
204.2125 656.5000
204.2918 656.0000
204.3000 655.9480
204.3710 655.5000
204.4000 655.3171
204.4503 655.0000
204.5000 654.6861
204.5295 654.5000
204.6000 654.0550
204.6087 654.0000
204.6879 653.5000
204.7000 653.4238
204.7671 653.0000
204.8000 652.7924
204.8463 652.5000
204.9000 652.1609
204.9255 652.0000
205.0000 651.5292
205.0046 651.5000
205.0838 651.0000
205.1000 650.8975
205.1629 650.5000
205.2000 650.2656
205.2420 650.0000
205.3000 649.6336
205.3211 649.5000
205.4000 649.0014
205.4002 649.0000
205.4793 648.5000
205.5000 648.3691
205.5584 648.0000
205.6000 647.7367
205.6374 647.5000
205.7000 647.1042
205.7165 647.0000
205.7955 646.5000
205.8000 646.4715
205.8745 646.0000
205.9000 645.8387
205.9535 645.5000
206.0000 645.2058
206.0325 645.0000
206.1000 644.5727
206.1115 644.5000
206.1905 644.0000
206.2000 643.9396
206.2694 643.5000
206.3000 643.3063
206.3483 643.0000
206.4000 642.6728
206.4273 642.5000
206.5000 642.0392
206.5062 642.0000
206.5851 641.5000
206.6000 641.4055
206.6640 641.0000
206.7000 640.7717
206.7429 640.5000
206.8000 640.1377
206.8217 640.0000
206.9000 639.5036
206.9006 639.5000
206.9794 639.0000
207.0000 638.8694
207.0582 638.5000
207.1000 638.2351
207.1370 638.0000
207.2000 637.6006
207.2158 637.5000
207.2946 637.0000
207.3000 636.9660
207.3734 636.5000
207.4000 636.3312
207.4522 636.0000
207.5000 635.6963
207.5309 635.5000
207.6000 635.0613
207.6097 635.0000
207.6884 634.5000
207.7000 634.4262
207.7671 634.0000
207.8000 633.7909
207.8458 633.5000
207.9000 633.1555
207.9245 633.0000
208.0000 632.5199
208.0031 632.5000
208.0818 632.0000
208.1000 631.8842
208.1604 631.5000
208.2000 631.2484
208.2391 631.0000
208.3000 630.6125
208.3177 630.5000
208.3963 630.0000
208.4000 629.9764
208.4749 629.5000
208.5000 629.3402
208.5535 629.0000
208.6000 628.7039
208.6320 628.5000
208.7000 628.0674
208.7106 628.0000
208.7891 627.5000
208.8000 627.4308
208.8677 627.0000
208.9000 626.7940
208.9462 626.5000
209.0000 626.1572
209.0247 626.0000
209.1000 625.5202
209.1032 625.5000
209.1816 625.0000
209.2000 624.8830
209.2601 624.5000
209.3000 624.2457
209.3386 624.0000
209.4000 623.6083
209.4170 623.5000
209.4954 623.0000
209.5000 622.9708
209.5738 622.5000
209.6000 622.3331
209.6522 622.0000
209.7000 621.6953
209.7306 621.5000
209.8000 621.0573
209.8090 621.0000
209.8873 620.5000
209.9000 620.4192
209.9657 620.0000
210.0000 619.7810
210.0440 619.5000
210.1000 619.1426
210.1223 619.0000
210.2000 618.5041
210.2006 618.5000
210.2789 618.0000
210.3000 617.8655
210.3572 617.5000
210.4000 617.2267
210.4355 617.0000
210.5000 616.5878
210.5137 616.5000
210.5920 616.0000
210.6000 615.9488
210.6702 615.5000
210.7000 615.3096
210.7484 615.0000
210.8000 614.6703
210.8266 614.5000
210.9000 614.0308
210.9048 614.0000
210.9830 613.5000
211.0000 613.3912
211.0612 613.0000
211.1000 612.7515
211.1393 612.5000
211.2000 612.1116
211.2174 612.0000
211.2956 611.5000
211.3000 611.4716
211.3737 611.0000
211.4000 610.8314
211.4518 610.5000
211.5000 610.1912
211.5299 610.0000
211.6000 609.5507
211.6079 609.5000
211.6860 609.0000
211.7000 608.9102
211.7640 608.5000
211.8000 608.2695
211.8421 608.0000
211.9000 607.6286
211.9201 607.5000
211.9981 607.0000
212.0000 606.9877
212.0761 606.5000
212.1000 606.3465
212.1540 606.0000
212.2000 605.7053
212.2320 605.5000
212.3000 605.0639
212.3100 605.0000
212.3879 604.5000
212.4000 604.4224
212.4658 604.0000
212.5000 603.7807
212.5437 603.5000
212.6000 603.1389
212.6216 603.0000
212.6995 602.5000
212.7000 602.4969
212.7774 602.0000
212.8000 601.8548
212.8552 601.5000
212.9000 601.2126
212.9331 601.0000
213.0000 600.5702
213.0109 600.5000
213.0887 600.0000
213.1000 599.9277
213.1665 599.5000
213.2000 599.2850
213.2443 599.0000
213.3000 598.6422
213.3221 598.5000
213.3999 598.0000
213.4000 597.9993
213.4776 597.5000
213.5000 597.3562
213.5554 597.0000
213.6000 596.7129
213.6331 596.5000
213.7000 596.0696
213.7108 596.0000
213.7885 595.5000
213.8000 595.4261
213.8662 595.0000
213.9000 594.7824
213.9439 594.5000
214.0000 594.1386
214.0215 594.0000
214.0992 593.5000
214.1000 593.4947
214.1768 593.0000
214.2000 592.8506
214.2544 592.5000
214.3000 592.2063
214.3320 592.0000
214.4000 591.5620
214.4096 591.5000
214.4872 591.0000
214.5000 590.9175
214.5648 590.5000
214.6000 590.2728
214.6423 590.0000
214.7000 589.6280
214.7198 589.5000
214.7974 589.0000
214.8000 588.9830
214.8749 588.5000
214.9000 588.3380
214.9524 588.0000
215.0000 587.6927
215.0299 587.5000
215.1000 587.0473
215.1073 587.0000
215.1848 586.5000
215.2000 586.4018
215.2622 586.0000
215.3000 585.7561
215.3397 585.5000
215.4000 585.1103
215.4171 585.0000
215.4945 584.5000
215.5000 584.4644
215.5719 584.0000
215.6000 583.8182
215.6492 583.5000
215.7000 583.1720
215.7266 583.0000
215.8000 582.5256
215.8040 582.5000
215.8813 582.0000
215.9000 581.8790
215.9586 581.5000
216.0000 581.2323
216.0359 581.0000
216.1000 580.5855
216.1132 580.5000
216.1905 580.0000
216.2000 579.9385
216.2678 579.5000
216.3000 579.2914
216.3450 579.0000
216.4000 578.6441
216.4223 578.5000
216.4995 578.0000
216.5000 577.9967
216.5767 577.5000
216.6000 577.3491
216.6539 577.0000
216.7000 576.7014
216.7311 576.5000
216.8000 576.0535
216.8083 576.0000
216.8854 575.5000
216.9000 575.4055
216.9626 575.0000
217.0000 574.7573
217.0397 574.5000
217.1000 574.1090
217.1168 574.0000
217.1939 573.5000
217.2000 573.4605
217.2710 573.0000
217.3000 572.8119
217.3481 572.5000
217.4000 572.1631
217.4251 572.0000
217.5000 571.5142
217.5022 571.5000
217.5792 571.0000
217.6000 570.8652
217.6563 570.5000
217.7000 570.2160
217.7333 570.0000
217.8000 569.5666
217.8103 569.5000
217.8872 569.0000
217.9000 568.9171
217.9642 568.5000
218.0000 568.2674
218.0412 568.0000
218.1000 567.6176
218.1181 567.5000
218.1950 567.0000
218.2000 566.9676
218.2719 566.5000
218.3000 566.3175
218.3488 566.0000
218.4000 565.6672
218.4257 565.5000
218.5000 565.0168
218.5026 565.0000
218.5794 564.5000
218.6000 564.3663
218.6563 564.0000
218.7000 563.7155
218.7331 563.5000
218.8000 563.0647
218.8099 563.0000
218.8867 562.5000
218.9000 562.4136
218.9635 562.0000
219.0000 561.7625
219.0403 561.5000
219.1000 561.1111
219.1171 561.0000
219.1938 560.5000
219.2000 560.4596
219.2705 560.0000
219.3000 559.8080
219.3473 559.5000
219.4000 559.1562
219.4240 559.0000
219.5000 558.5043
219.5007 558.5000
219.5773 558.0000
219.6000 557.8522
219.6540 557.5000
219.7000 557.1999
219.7306 557.0000
219.8000 556.5475
219.8073 556.5000
219.8839 556.0000
219.9000 555.8950
219.9605 555.5000
220.0000 555.2422
220.0371 555.0000
220.1000 554.5894
220.1137 554.5000
220.1903 554.0000
220.2000 553.9364
220.2668 553.5000
220.3000 553.2832
220.3433 553.0000
220.4000 552.6298
220.4199 552.5000
220.4964 552.0000
220.5000 551.9764
220.5729 551.5000
220.6000 551.3227
220.6494 551.0000
220.7000 550.6689
220.7258 550.5000
220.8000 550.0150
220.8023 550.0000
220.8787 549.5000
220.9000 549.3608
220.9552 549.0000
221.0000 548.7066
221.0316 548.5000
221.1000 548.0522
221.1080 548.0000
221.1844 547.5000
221.2000 547.3976
221.2607 547.0000
221.3000 546.7428
221.3371 546.5000
221.4000 546.0879
221.4134 546.0000
221.4898 545.5000
221.5000 545.4329
221.5661 545.0000
221.6000 544.7777
221.6424 544.5000
221.7000 544.1223
221.7187 544.0000
221.7949 543.5000
221.8000 543.4668
221.8712 543.0000
221.9000 542.8111
221.9474 542.5000
222.0000 542.1552
222.0237 542.0000
222.0999 541.5000
222.1000 541.4992
222.1761 541.0000
222.2000 540.8431
222.2523 540.5000
222.3000 540.1868
222.3285 540.0000
222.4000 539.5303
222.4046 539.5000
222.4808 539.0000
222.5000 538.8736
222.5569 538.5000
222.6000 538.2168
222.6330 538.0000
222.7000 537.5599
222.7091 537.5000
222.7852 537.0000
222.8000 536.9028
222.8613 536.5000
222.9000 536.2455
222.9373 536.0000
223.0000 535.5880
223.0134 535.5000
223.0894 535.0000
223.1000 534.9304
223.1654 534.5000
223.2000 534.2727
223.2414 534.0000
223.3000 533.6148
223.3174 533.5000
223.3934 533.0000
223.4000 532.9567
223.4694 532.5000
223.5000 532.2984
223.5453 532.0000
223.6000 531.6400
223.6213 531.5000
223.6972 531.0000
223.7000 530.9814
223.7731 530.5000
223.8000 530.3227
223.8490 530.0000
223.9000 529.6638
223.9249 529.5000
224.0000 529.0048
224.0007 529.0000
224.0766 528.5000
224.1000 528.3455
224.1524 528.0000
224.2000 527.6862
224.2282 527.5000
224.3000 527.0266
224.3040 527.0000
224.3798 526.5000
224.4000 526.3669
224.4556 526.0000
224.5000 525.7070
224.5314 525.5000
224.6000 525.0470
224.6071 525.0000
224.6829 524.5000
224.7000 524.3868
224.7586 524.0000
224.8000 523.7264
224.8343 523.5000
224.9000 523.0659
224.9100 523.0000
224.9856 522.5000
225.0000 522.4052
225.0613 522.0000
225.1000 521.7443
225.1370 521.5000
225.2000 521.0833
225.2126 521.0000
225.2882 520.5000
225.3000 520.4221
225.3638 520.0000
225.4000 519.7607
225.4394 519.5000
225.5000 519.0992
225.5150 519.0000
225.5906 518.5000
225.6000 518.4375
225.6661 518.0000
225.7000 517.7756
225.7416 517.5000
225.8000 517.1136
225.8172 517.0000
225.8927 516.5000
225.9000 516.4514
225.9682 516.0000
226.0000 515.7891
226.0436 515.5000
226.1000 515.1265
226.1191 515.0000
226.1945 514.5000
226.2000 514.4638
226.2700 514.0000
226.3000 513.8010
226.3454 513.5000
226.4000 513.1380
226.4208 513.0000
226.4962 512.5000
226.5000 512.4748
226.5716 512.0000
226.6000 511.8114
226.6469 511.5000
226.7000 511.1479
226.7223 511.0000
226.7976 510.5000
226.8000 510.4841
226.8729 510.0000
226.9000 509.8203
226.9482 509.5000
227.0000 509.1562
227.0235 509.0000
227.0988 508.5000
227.1000 508.4920
227.1741 508.0000
227.2000 507.8276
227.2493 507.5000
227.3000 507.1631
227.3245 507.0000
227.3998 506.5000
227.4000 506.4983
227.4750 506.0000
227.5000 505.8335
227.5501 505.5000
227.6000 505.1684
227.6253 505.0000
227.7000 504.5032
227.7005 504.5000
227.7756 504.0000
227.8000 503.8377
227.8507 503.5000
227.9000 503.1722
227.9259 503.0000
228.0000 502.5064
228.0010 502.5000
228.0760 502.0000
228.1000 501.8405
228.1511 501.5000
228.2000 501.1744
228.2262 501.0000
228.3000 500.5081
228.3012 500.5000
228.3762 500.0000
228.4000 499.8417
228.4513 499.5000
228.5000 499.1751
228.5263 499.0000
228.6000 498.5083
228.6012 498.5000
228.6762 498.0000
228.7000 497.8413
228.7512 497.5000
228.8000 497.1742
228.8261 497.0000
228.9000 496.5069
228.9010 496.5000
228.9759 496.0000
229.0000 495.8394
229.0508 495.5000
229.1000 495.1717
229.1257 495.0000
229.2000 494.5039
229.2006 494.5000
229.2754 494.0000
229.3000 493.8359
229.3503 493.5000
229.4000 493.1677
229.4251 493.0000
229.4999 492.5000
229.5000 492.4994
229.5747 492.0000
229.6000 491.8308
229.6495 491.5000
229.7000 491.1621
229.7242 491.0000
229.7990 490.5000
229.8000 490.4932
229.8737 490.0000
229.9000 489.8242
229.9484 489.5000
230.0000 489.1549
230.0231 489.0000
230.0978 488.5000
230.1000 488.4855
230.1725 488.0000
230.2000 487.8159
230.2472 487.5000
230.3000 487.1461
230.3218 487.0000
230.3964 486.5000
230.4000 486.4762
230.4711 486.0000
230.5000 485.8061
230.5457 485.5000
230.6000 485.1358
230.6203 485.0000
230.6948 484.5000
230.7000 484.4653
230.7694 484.0000
230.8000 483.7946
230.8439 483.5000
230.9000 483.1238
230.9185 483.0000
230.9930 482.5000
231.0000 482.4528
231.0675 482.0000
231.1000 481.7816
231.1419 481.5000
231.2000 481.1102
231.2164 481.0000
231.2909 480.5000
231.3000 480.4386
231.3653 480.0000
231.4000 479.7669
231.4397 479.5000
231.5000 479.0950
231.5141 479.0000
231.5885 478.5000
231.6000 478.4229
231.6629 478.0000
231.7000 477.7506
231.7373 477.5000
231.8000 477.0782
231.8116 477.0000
231.8860 476.5000
231.9000 476.4055
231.9603 476.0000
232.0000 475.7327
232.0346 475.5000
232.1000 475.0597
232.1089 475.0000
232.1831 474.5000
232.2000 474.3865
232.2574 474.0000
232.3000 473.7131
232.3316 473.5000
232.4000 473.0396
232.4059 473.0000
232.4801 472.5000
232.5000 472.3659
232.5543 472.0000
232.6000 471.6919
232.6285 471.5000
232.7000 471.0178
232.7026 471.0000
232.7768 470.5000
232.8000 470.3436
232.8509 470.0000
232.9000 469.6691
232.9251 469.5000
232.9992 469.0000
233.0000 468.9944
233.0733 468.5000
233.1000 468.3196
233.1473 468.0000
233.2000 467.6446
233.2214 467.5000
233.2955 467.0000
233.3000 466.9694
233.3695 466.5000
233.4000 466.2940
233.4435 466.0000
233.5000 465.6184
233.5175 465.5000
233.5915 465.0000
233.6000 464.9426
233.6655 464.5000
233.7000 464.2667
233.7394 464.0000
233.8000 463.5906
233.8134 463.5000
233.8873 463.0000
233.9000 462.9142
233.9612 462.5000
234.0000 462.2377
234.0351 462.0000
234.1000 461.5610
234.1090 461.5000
234.1829 461.0000
234.2000 460.8842
234.2567 460.5000
234.3000 460.2071
234.3306 460.0000
234.4000 459.5298
234.4044 459.5000
234.4782 459.0000
234.5000 458.8524
234.5520 458.5000
234.6000 458.1747
234.6258 458.0000
234.6995 457.5000
234.7000 457.4969
234.7733 457.0000
234.8000 456.8189
234.8470 456.5000
234.9000 456.1407
234.9207 456.0000
234.9944 455.5000
235.0000 455.4623
235.0681 455.0000
235.1000 454.7837
235.1418 454.5000
235.2000 454.1050
235.2155 454.0000
235.2891 453.5000
235.3000 453.4260
235.3627 453.0000
235.4000 452.7469
235.4363 452.5000
235.5000 452.0675
235.5099 452.0000
235.5835 451.5000
235.6000 451.3880
235.6571 451.0000
235.7000 450.7083
235.7306 450.5000
235.8000 450.0283
235.8042 450.0000
235.8777 449.5000
235.9000 449.3482
235.9512 449.0000
236.0000 448.6679
236.0247 448.5000
236.0982 448.0000
236.1000 447.9874
236.1716 447.5000
236.2000 447.3067
236.2451 447.0000
236.3000 446.6259
236.3185 446.5000
236.3919 446.0000
236.4000 445.9448
236.4653 445.5000
236.5000 445.2635
236.5387 445.0000
236.6000 444.5821
236.6120 444.5000
236.6854 444.0000
236.7000 443.9004
236.7587 443.5000
236.8000 443.2186
236.8320 443.0000
236.9000 442.5365
236.9054 442.5000
236.9786 442.0000
237.0000 441.8543
237.0519 441.5000
237.1000 441.1718
237.1252 441.0000
237.1984 440.5000
237.2000 440.4892
237.2716 440.0000
237.3000 439.8064
237.3449 439.5000
237.4000 439.1234
237.4181 439.0000
237.4912 438.5000
237.5000 438.4402
237.5644 438.0000
237.6000 437.7567
237.6376 437.5000
237.7000 437.0731
237.7107 437.0000
237.7838 436.5000
237.8000 436.3893
237.8569 436.0000
237.9000 435.7053
237.9300 435.5000
238.0000 435.0211
238.0031 435.0000
238.0761 434.5000
238.1000 434.3367
238.1492 434.0000
238.2000 433.6521
238.2222 433.5000
238.2952 433.0000
238.3000 432.9673
238.3682 432.5000
238.4000 432.2823
238.4412 432.0000
238.5000 431.5971
238.5142 431.5000
238.5871 431.0000
238.6000 430.9117
238.6601 430.5000
238.7000 430.2261
238.7330 430.0000
238.8000 429.5403
238.8059 429.5000
238.8788 429.0000
238.9000 428.8543
238.9516 428.5000
239.0000 428.1681
239.0245 428.0000
239.0973 427.5000
239.1000 427.4817
239.1702 427.0000
239.2000 426.7951
239.2430 426.5000
239.3000 426.1083
239.3158 426.0000
239.3885 425.5000
239.4000 425.4213
239.4613 425.0000
239.5000 424.7341
239.5341 424.5000
239.6000 424.0466
239.6068 424.0000
239.6795 423.5000
239.7000 423.3590
239.7522 423.0000
239.8000 422.6712
239.8249 422.5000
239.8976 422.0000
239.9000 421.9832
239.9702 421.5000
240.0000 421.2950
240.0428 421.0000
240.1000 420.6065
240.1155 420.5000
240.1881 420.0000
240.2000 419.9179
240.2607 419.5000
240.3000 419.2290
240.3332 419.0000
240.4000 418.5400
240.4058 418.5000
240.4783 418.0000
240.5000 417.8507
240.5509 417.5000
240.6000 417.1613
240.6234 417.0000
240.6959 416.5000
240.7000 416.4716
240.7684 416.0000
240.8000 415.7817
240.8408 415.5000
240.9000 415.0917
240.9133 415.0000
240.9857 414.5000
241.0000 414.4014
241.0581 414.0000
241.1000 413.7109
241.1305 413.5000
241.2000 413.0202
241.2029 413.0000
241.2753 412.5000
241.3000 412.3293
241.3476 412.0000
241.4000 411.6382
241.4200 411.5000
241.4923 411.0000
241.5000 410.9468
241.5646 410.5000
241.6000 410.2553
241.6369 410.0000
241.7000 409.5636
241.7092 409.5000
241.7814 409.0000
241.8000 408.8716
241.8537 408.5000
241.9000 408.1794
241.9259 408.0000
241.9981 407.5000
242.0000 407.4871
242.0703 407.0000
242.1000 406.7945
242.1425 406.5000
242.2000 406.1017
242.2147 406.0000
242.2868 405.5000
242.3000 405.4087
242.3590 405.0000
242.4000 404.7155
242.4311 404.5000
242.5000 404.0220
242.5032 404.0000
242.5753 403.5000
242.6000 403.3284
242.6473 403.0000
242.7000 402.6345
242.7194 402.5000
242.7914 402.0000
242.8000 401.9405
242.8634 401.5000
242.9000 401.2462
242.9354 401.0000
243.0000 400.5517
243.0074 400.5000
243.0794 400.0000
243.1000 399.8570
243.1514 399.5000
243.2000 399.1620
243.2233 399.0000
243.2952 398.5000
243.3000 398.4669
243.3671 398.0000
243.4000 397.7715
243.4390 397.5000
243.5000 397.0760
243.5109 397.0000
243.5828 396.5000
243.6000 396.3802
243.6546 396.0000
243.7000 395.6842
243.7265 395.5000
243.7983 395.0000
243.8000 394.9880
243.8701 394.5000
243.9000 394.2915
243.9419 394.0000
244.0000 393.5949
244.0136 393.5000
244.0854 393.0000
244.1000 392.8980
244.1571 392.5000
244.2000 392.2009
244.2288 392.0000
244.3000 391.5036
244.3005 391.5000
244.3722 391.0000
244.4000 390.8061
244.4439 390.5000
244.5000 390.1084
244.5155 390.0000
244.5872 389.5000
244.6000 389.4104
244.6588 389.0000
244.7000 388.7122
244.7304 388.5000
244.8000 388.0138
244.8020 388.0000
244.8735 387.5000
244.9000 387.3152
244.9451 387.0000
245.0000 386.6163
245.0166 386.5000
245.0882 386.0000
245.1000 385.9173
245.1597 385.5000
245.2000 385.2180
245.2312 385.0000
245.3000 384.5185
245.3026 384.5000
245.3741 384.0000
245.4000 383.8188
245.4455 383.5000
245.5000 383.1188
245.5170 383.0000
245.5884 382.5000
245.6000 382.4186
245.6598 382.0000
245.7000 381.7182
245.7312 381.5000
245.8000 381.0176
245.8025 381.0000
245.8739 380.5000
245.9000 380.3168
245.9452 380.0000
246.0000 379.6157
246.0165 379.5000
246.0878 379.0000
246.1000 378.9144
246.1591 378.5000
246.2000 378.2129
246.2303 378.0000
246.3000 377.5111
246.3016 377.5000
246.3728 377.0000
246.4000 376.8092
246.4440 376.5000
246.5000 376.1070
246.5152 376.0000
246.5864 375.5000
246.6000 375.4045
246.6576 375.0000
246.7000 374.7019
246.7287 374.5000
246.7999 374.0000
246.8000 373.9990
246.8710 373.5000
246.9000 373.2959
246.9421 373.0000
247.0000 372.5926
247.0132 372.5000
247.0842 372.0000
247.1000 371.8890
247.1553 371.5000
247.2000 371.1852
247.2263 371.0000
247.2973 370.5000
247.3000 370.4812
247.3683 370.0000
247.4000 369.7770
247.4393 369.5000
247.5000 369.0725
247.5103 369.0000
247.5812 368.5000
247.6000 368.3678
247.6522 368.0000
247.7000 367.6628
247.7231 367.5000
247.7940 367.0000
247.8000 366.9577
247.8649 366.5000
247.9000 366.2522
247.9358 366.0000
248.0000 365.5466
248.0066 365.5000
248.0774 365.0000
248.1000 364.8407
248.1483 364.5000
248.2000 364.1346
248.2191 364.0000
248.2899 363.5000
248.3000 363.4283
248.3606 363.0000
248.4000 362.7217
248.4314 362.5000
248.5000 362.0149
248.5021 362.0000
248.5728 361.5000
248.6000 361.3079
248.6435 361.0000
248.7000 360.6006
248.7142 360.5000
248.7849 360.0000
248.8000 359.8931
248.8555 359.5000
248.9000 359.1854
248.9262 359.0000
248.9968 358.5000
249.0000 358.4774
249.0674 358.0000
249.1000 357.7692
249.1380 357.5000
249.2000 357.0607
249.2086 357.0000
249.2791 356.5000
249.3000 356.3520
249.3497 356.0000
249.4000 355.6431
249.4176 355.5042
