SF_Version 0.9.3
03-Sep-2024 23:12:15
Temp(K) Pressure(MPa) Temp(K) Pressure(MPa)  Points 
201.9335 670.8401 249.4176 355.5042 1107.0000
###########################################################
D H (J/kg)  D S (J/(K*kg)
47985.9666 237.6324
48001.8907 237.6475
48005.4838 237.6509
48025.2981 237.6697
48034.8836 237.6788
48048.7079 237.6919
48064.2931 237.7067
48072.1202 237.7141
48093.7122 237.7346
48095.5350 237.7363
48118.9521 237.7586
48123.1410 237.7626
48142.3717 237.7808
48152.5795 237.7905
48165.7938 237.8031
48182.0277 237.8185
48189.2183 237.8253
48211.4856 237.8465
48212.6453 237.8476
48236.0747 237.8699
48240.9533 237.8745
48259.5066 237.8922
48270.4308 237.9026
48282.9410 237.9145
48299.9179 237.9306
48306.3778 237.9368
48329.4148 237.9587
48329.8171 237.9591
48353.2589 237.9814
48358.9216 237.9868
48376.7031 238.0038
48388.4382 238.0149
48400.1499 238.0261
48417.9646 238.0431
48423.5991 238.0485
48447.0508 238.0708
48447.5008 238.0713
48470.5050 238.0932
48477.0470 238.0994
48493.9617 238.1156
48506.6030 238.1277
48517.4209 238.1380
48536.1689 238.1559
48540.8827 238.1604
48564.3469 238.1828
48565.7447 238.1841
48587.8136 238.2052
48595.3305 238.2124
48611.2829 238.2277
48624.9262 238.2407
48634.7547 238.2501
48654.5319 238.2690
48658.2291 238.2725
48681.7059 238.2950
48684.1476 238.2973
48705.1853 238.3175
48713.7733 238.3257
48728.6673 238.3400
48743.4090 238.3541
48752.1518 238.3625
48773.0548 238.3825
48775.6389 238.3850
48799.1285 238.4075
48802.7106 238.4109
48822.6207 238.4300
48832.3766 238.4393
48846.1154 238.4525
48862.0527 238.4678
48869.6128 238.4751
48891.7388 238.4963
48893.1127 238.4976
48916.6153 238.5202
48921.4352 238.5248
48940.1204 238.5427
48951.1418 238.5533
48963.6281 238.5653
48980.8585 238.5819
48987.1384 238.5879
49010.5854 238.6104
49010.6514 238.6105
49034.1670 238.6331
49040.3226 238.6390
49057.6852 238.6557
49070.0701 238.6677
49081.2060 238.6784
49099.8278 238.6963
49104.7295 238.7010
49128.2557 238.7237
49129.5958 238.7250
49151.7844 238.7463
49159.3743 238.7536
49175.3159 238.7690
49189.1630 238.7823
49198.8500 238.7917
49218.9621 238.8111
49222.3868 238.8144
49245.9263 238.8371
49248.7717 238.8398
49269.4684 238.8598
49278.5917 238.8686
49293.0133 238.8825
49308.4221 238.8974
49316.5609 238.9053
49338.2629 238.9262
49340.1112 238.9280
49363.6642 238.9508
49368.1144 238.9551
49387.2199 238.9735
49397.9764 238.9839
49410.7783 238.9963
49427.8488 239.0128
49434.3396 239.0191
49457.7319 239.0417
49457.9035 239.0419
49481.4702 239.0647
49487.6256 239.0707
49505.0397 239.0875
49517.5299 239.0996
49528.6120 239.1103
49547.4449 239.1286
49552.1870 239.1332
49575.7649 239.1560
49577.3705 239.1576
49599.3455 239.1789
49607.3070 239.1866
49622.9289 239.2018
49637.2541 239.2157
49646.5152 239.2247
49667.2120 239.2448
49670.1043 239.2476
49693.6962 239.2705
49697.1807 239.2739
49717.2909 239.2934
49727.1602 239.3030
49740.8885 239.3163
49757.1506 239.3321
49764.4890 239.3393
49787.1518 239.3613
49788.0923 239.3622
49811.6985 239.3852
49817.1640 239.3905
49835.3076 239.4082
49847.1871 239.4197
49858.9196 239.4311
49877.2211 239.4490
49882.5345 239.4541
49906.1522 239.4772
49907.2661 239.4782
49929.7729 239.5002
49937.3222 239.5075
49953.3965 239.5232
49967.3893 239.5369
49977.0231 239.5463
49997.4674 239.5662
50000.6526 239.5693
50024.2850 239.5924
50027.5566 239.5956
50047.9203 239.6155
50057.6570 239.6250
50071.5587 239.6386
50087.7685 239.6544
50095.2000 239.6617
50117.8912 239.6838
50118.8443 239.6848
50142.4915 239.7079
50148.0251 239.7133
50166.1417 239.7310
50178.1702 239.7428
50189.7950 239.7542
50208.3265 239.7723
50213.4512 239.7774
50237.1105 239.8005
50238.4941 239.8019
50260.7727 239.8237
50268.6730 239.8315
50284.4380 239.8469
50298.8632 239.8611
50308.1063 239.8701
50329.0648 239.8907
50331.7776 239.8933
50355.4520 239.9166
50359.2777 239.9203
50379.1294 239.9398
50389.5021 239.9500
50402.8099 239.9631
50419.7378 239.9797
50426.4934 239.9864
50449.9849 240.0094
50450.1801 240.0096
50473.8697 240.0329
50480.2436 240.0392
50497.5625 240.0562
50510.5138 240.0690
50521.2583 240.0796
50540.7954 240.0988
50544.9573 240.1029
50568.6593 240.1262
50571.0886 240.1286
50592.3644 240.1496
50601.3934 240.1585
50616.0726 240.1730
50631.7097 240.1884
50639.7839 240.1963
50662.0376 240.2183
50663.4984 240.2197
50687.2160 240.2431
50692.3772 240.2482
50710.9367 240.2666
50722.7284 240.2782
50734.6605 240.2900
50753.0912 240.3082
50758.3875 240.3134
50782.1176 240.3369
50783.4658 240.3382
50805.8509 240.3604
50813.8521 240.3683
50829.5873 240.3838
50844.2501 240.3983
50853.3269 240.4073
50874.6599 240.4284
50877.0696 240.4308
50900.8155 240.4544
50905.0815 240.4586
50924.5646 240.4779
50935.5148 240.4887
50948.3168 240.5014
50965.9600 240.5189
50972.0723 240.5250
50995.8309 240.5486
50996.4170 240.5491
51019.5927 240.5721
51026.8859 240.5794
51043.3577 240.5957
51057.3667 240.6096
51067.1259 240.6193
51087.8594 240.6399
51090.8973 240.6430
51114.6719 240.6666
51118.3640 240.6703
51138.4497 240.6902
51148.8806 240.7006
51162.2307 240.7139
51179.4091 240.7310
51186.0150 240.7376
51209.8025 240.7613
51209.9496 240.7614
51233.5931 240.7849
51240.5022 240.7918
51257.3871 240.8087
51271.0667 240.8223
51281.1842 240.8324
51301.6433 240.8528
51304.9846 240.8561
51328.7883 240.8799
51332.2320 240.8833
51352.5951 240.9036
51362.8328 240.9138
51376.4052 240.9274
51393.4456 240.9444
51400.2186 240.9512
51424.0353 240.9750
51424.0705 240.9750
51447.8551 240.9988
51454.7077 241.0057
51471.6783 241.0226
51485.3570 241.0363
51495.5047 241.0465
51516.0184 241.0670
51519.3344 241.0703
51543.1673 241.0942
51546.6921 241.0977
51567.0035 241.1181
51577.3780 241.1285
51590.8429 241.1420
51608.0761 241.1592
51614.6857 241.1659
51638.5318 241.1898
51638.7864 241.1900
51662.3811 241.2137
51669.5092 241.2209
51686.2337 241.2377
51700.2441 241.2517
51710.0895 241.2616
51730.9913 241.2826
51733.9487 241.2856
51757.8112 241.3096
51761.7509 241.3135
51781.6769 241.3336
51792.5228 241.3445
51805.5460 241.3576
51823.3070 241.3754
51829.4184 241.3816
51853.2940 241.4056
51854.1036 241.4064
51877.1730 241.4297
51884.9127 241.4375
51901.0552 241.4537
51915.7342 241.4685
51924.9408 241.4778
51946.5680 241.4996
51948.8297 241.5019
51972.7219 241.5260
51977.4143 241.5307
51996.6173 241.5501
52008.2731 241.5619
52020.5161 241.5742
52039.1444 241.5931
52044.4183 241.5984
52068.3237 241.6225
52070.0281 241.6243
52092.2325 241.6467
52100.9244 241.6555
52116.1445 241.6709
52131.8331 241.6868
52140.0599 241.6951
52162.7544 241.7180
52163.9787 241.7193
52187.9007 241.7435
52193.6883 241.7494
52211.8261 241.7677
52224.6348 241.7807
52235.7548 241.7920
52255.5937 241.8121
52259.6868 241.8162
52283.6221 241.8405
52286.5654 241.8435
52307.5608 241.8648
52317.5496 241.8749
52331.5028 241.8891
52348.5465 241.9064
52355.4482 241.9134
52379.3969 241.9377
52379.5560 241.9379
52403.3488 241.9621
52410.5782 241.9694
52427.3042 241.9864
52441.6131 242.0010
52451.2628 242.0108
52472.6606 242.0326
52475.2249 242.0352
52499.1902 242.0596
52503.7209 242.0642
52523.1589 242.0840
52534.7939 242.0958
52547.1309 242.1084
52565.8796 242.1275
52571.1063 242.1328
52595.0850 242.1573
52596.9780 242.1592
52619.0670 242.1817
52628.0893 242.1909
52643.0523 242.2062
52659.2133 242.2227
52667.0411 242.2307
52690.3501 242.2545
52691.0331 242.2552
52715.0285 242.2797
52721.4997 242.2863
52739.0272 242.3042
52752.6622 242.3182
52763.0293 242.3288
52783.8374 242.3500
52787.0347 242.3533
52811.0435 242.3779
52815.0255 242.3819
52835.0556 242.4024
52846.2265 242.4139
52859.0710 242.4270
52877.4403 242.4459
52883.0898 242.4516
52907.1119 242.4763
52908.6670 242.4779
52931.1374 242.5009
52939.9067 242.5099
52955.1662 242.5255
52971.1592 242.5419
52979.1983 242.5502
53002.4246 242.5740
53003.2338 242.5749
53027.2726 242.5995
53033.7031 242.6061
53051.3148 242.6242
53064.9945 242.6383
53075.3603 242.6489
53096.2988 242.6705
53099.4092 242.6737
53123.4613 242.6984
53127.6161 242.7027
53147.5168 242.7232
53158.9464 242.7349
53171.5757 242.7479
53190.2897 242.7672
53195.6379 242.7727
53219.7034 242.7975
53221.6460 242.7995
53243.7723 242.8223
53253.0154 242.8318
53267.8445 242.8471
53284.3978 242.8642
53291.9200 242.8719
53315.7931 242.8966
53315.9989 242.8968
53340.0811 242.9216
53347.2017 242.9290
53364.1667 242.9465
53378.6233 242.9614
53388.2556 242.9714
53410.0579 242.9939
53412.3478 242.9963
53436.4433 243.0212
53441.5057 243.0264
53460.5422 243.0461
53472.9667 243.0589
53484.6444 243.0710
53504.4406 243.0915
53508.7499 243.0960
53532.8588 243.1209
53535.9278 243.1241
53556.9710 243.1459
53567.4281 243.1567
53581.0865 243.1709
53598.9416 243.1894
53605.2053 243.1959
53629.3275 243.2209
53630.4682 243.2221
53653.4530 243.2459
53662.0081 243.2548
53677.5818 243.2710
53693.5612 243.2875
53701.7140 243.2960
53725.1273 243.3203
53725.8495 243.3211
53749.9883 243.3462
53756.7069 243.3531
53774.1304 243.3712
53788.2996 243.3860
53798.2758 243.3963
53819.9056 243.4188
53822.4246 243.4215
53846.5767 243.4466
53851.5248 243.4517
53870.7321 243.4717
53883.1574 243.4847
53894.8908 243.4969
53914.8032 243.5176
53919.0529 243.5221
53943.2182 243.5472
53946.4623 243.5506
53967.3869 243.5724
53978.1348 243.5836
53991.5589 243.5976
54009.8206 243.6167
54015.7343 243.6229
54039.9129 243.6481
54041.5196 243.6498
54064.0949 243.6733
54073.2322 243.6829
54088.2801 243.6986
54104.9580 243.7160
54112.4687 243.7239
54136.6607 243.7492
54136.6972 243.7492
54160.8559 243.7745
54168.4499 243.7824
54185.0544 243.7998
54200.2160 243.8156
54209.2563 243.8251
54231.9954 243.8489
54233.4615 243.8504
54257.6700 243.8758
54263.7884 243.8822
54281.8818 243.9011
54295.5948 243.9155
54306.0969 243.9265
54327.4146 243.9489
54330.3154 243.9519
54354.5371 243.9773
54359.2479 243.9823
54378.7622 244.0027
54391.0948 244.0157
54402.9905 244.0282
54422.9551 244.0491
54427.2223 244.0536
54451.4573 244.0791
54454.8290 244.0826
54475.6956 244.1045
54486.7164 244.1161
54499.9372 244.1300
54518.6173 244.1497
54524.1822 244.1555
54548.4304 244.1810
54550.5318 244.1832
54572.6820 244.2065
54582.4600 244.2168
54596.9369 244.2321
54614.4017 244.2505
54621.1951 244.2576
54645.4566 244.2832
54646.3570 244.2841
54669.7214 244.3087
54678.3260 244.3178
54693.9896 244.3343
54710.3086 244.3515
54718.2610 244.3599
54742.3047 244.3853
54742.5358 244.3855
54766.8139 244.4112
54774.3147 244.4191
54791.0953 244.4368
54806.3383 244.4529
54815.3800 244.4624
54838.3755 244.4867
54839.6680 244.4881
54863.9593 244.5138
54870.4266 244.5206
54888.2540 244.5395
54902.4914 244.5545
54912.5519 244.5652
54934.5698 244.5885
54936.8532 244.5909
54961.1578 244.6166
54966.6621 244.6224
54985.4657 244.6424
54998.7681 244.6564
55009.7769 244.6681
55030.8879 244.6905
55034.0914 244.6939
55058.4092 244.7196
55063.0215 244.7245
55082.7304 244.7454
55095.1690 244.7586
55107.0548 244.7712
55127.3302 244.7928
55131.3826 244.7971
55155.7137 244.8229
55159.5054 244.8269
55180.0481 244.8487
55191.6944 244.8611
55204.3858 244.8746
55223.8973 244.8953
55228.7269 244.9005
55253.0712 244.9263
55256.1140 244.9296
55277.4188 244.9522
55288.3448 244.9639
55301.7698 244.9782
55320.5894 244.9982
55326.1241 245.0041
55350.4817 245.0300
55352.8479 245.0325
55374.8426 245.0560
55385.1205 245.0669
55399.2069 245.0819
55417.4070 245.1013
55423.5744 245.1079
55447.9453 245.1339
55449.7075 245.1358
55472.3195 245.1599
55482.0220 245.1702
55496.6969 245.1859
55514.3506 245.2047
55521.0778 245.2119
55545.4619 245.2379
55546.6931 245.2393
55569.8493 245.2640
55579.0498 245.2738
55594.2401 245.2901
55611.4205 245.3084
55618.6342 245.3161
55643.0316 245.3422
55643.8053 245.3431
55667.4323 245.3683
55676.2043 245.3777
55691.8364 245.3944
55708.6173 245.4124
55716.2437 245.4206
55740.6544 245.4467
55741.0444 245.4471
55765.0684 245.4729
55773.4858 245.4819
55789.4857 245.4990
55805.9413 245.5167
55813.9064 245.5252
55838.3304 245.5514
55838.4110 245.5515
55862.7576 245.5776
55870.8950 245.5864
55887.1882 245.6038
55903.3931 245.6212
55911.6221 245.6301
55935.9054 245.6562
55936.0594 245.6563
55960.5000 245.6826
55968.4321 245.6911
55984.9438 245.7088
56000.9731 245.7261
56009.3911 245.7351
56033.5282 245.7611
56033.8417 245.7614
56058.2955 245.7877
56066.0978 245.7961
56082.7527 245.8141
56098.6816 245.8312
56107.2132 245.8404
56131.2797 245.8663
56131.6771 245.8667
56156.1442 245.8931
56163.8924 245.9015
56180.6147 245.9195
56196.5193 245.9366
56205.0886 245.9459
56229.1606 245.9718
56229.5658 245.9723
56254.0463 245.9987
56261.8164 246.0071
56278.5301 246.0251
56294.4866 246.0423
56303.0172 246.0515
56327.1711 246.0776
56327.5078 246.0780
56352.0015 246.1045
56359.8703 246.1130
56376.4987 246.1309
56392.5839 246.1483
56400.9992 246.1574
56425.3119 246.1837
56425.5031 246.1839
56450.0102 246.2105
56458.0546 246.2192
56474.5207 246.2370
56490.8118 246.2546
56499.0345 246.2635
56523.5517 246.2901
56523.5834 246.2901
56548.0722 246.3167
56556.3699 246.3257
56572.5960 246.3432
56589.1708 246.3612
56597.1232 246.3698
56621.6538 246.3964
56621.9862 246.3968
56646.1877 246.4231
56654.8164 246.4324
56670.7249 246.4497
56687.6613 246.4681
56695.2654 246.4764
56719.8094 246.5030
56720.5207 246.5038
56744.3566 246.5297
56753.3949 246.5395
56768.9072 246.5564
56786.2838 246.5753
56793.4612 246.5831
56818.0185 246.6098
56819.1874 246.6111
56842.5791 246.6365
56852.1058 246.6469
56867.1431 246.6632
56885.0390 246.6827
56891.7105 246.6900
56916.2812 246.7168
56917.9868 246.7186
56940.8552 246.7435
56950.9497 246.7545
56965.4327 246.7703
56983.9272 246.7905
56990.0135 246.7971
57014.5976 246.8240
57016.9196 246.8265
57039.1851 246.8508
57049.9270 246.8625
57063.7759 246.8776
57082.9491 246.8986
57088.3702 246.9045
57112.9678 246.9314
57115.9862 246.9347
57137.5687 246.9582
57149.0383 246.9708
57162.1730 246.9851
57182.1052 247.0069
57186.7807 247.0120
57211.3917 247.0390
57215.1871 247.0431
57236.0061 247.0659
57248.2841 247.0793
57260.6239 247.0929
57281.3960 247.1156
57285.2451 247.1198
57309.8696 247.1468
57314.5230 247.1519
57334.4975 247.1738
57347.6651 247.1882
57359.1288 247.2008
57380.8222 247.2246
57383.7635 247.2278
57408.4015 247.2548
57413.9944 247.2610
57433.0429 247.2819
57447.1818 247.2974
57457.6877 247.3089
57480.3841 247.3338
57482.3360 247.3360
57506.9875 247.3631
57513.6018 247.3703
57531.6425 247.3902
57546.8347 247.4069
57556.3008 247.4173
57580.0826 247.4434
57580.9626 247.4444
57605.6277 247.4715
57613.3459 247.4800
57630.2962 247.4987
57646.6244 247.5166
57654.9682 247.5258
57679.6435 247.5530
57679.9180 247.5533
57704.3222 247.5802
57713.2272 247.5900
57729.0043 247.6074
57746.5515 247.6267
57753.6898 247.6346
57778.3788 247.6618
57779.8912 247.6635
57803.0711 247.6891
57813.2463 247.7003
57827.7668 247.7163
57846.6167 247.7371
57852.4660 247.7436
57877.1685 247.7709
57880.0025 247.7740
57901.8745 247.7981
57913.4038 247.8109
57926.5838 247.8255
57946.8205 247.8478
57951.2967 247.8528
57976.0129 247.8801
57980.2526 247.8848
58000.7325 247.9074
58013.7004 247.9218
58025.4555 247.9348
58047.1635 247.9588
58050.1820 247.9622
58074.9119 247.9896
58080.6422 247.9959
58099.6452 248.0170
58114.1365 248.0330
58124.3820 248.0444
58147.6463 248.0702
58149.1222 248.0718
58173.8658 248.0992
58181.1719 248.1073
58198.6128 248.1267
58214.7130 248.1446
58223.3633 248.1542
58248.1173 248.1816
58248.2696 248.1818
58272.8746 248.2091
58281.8422 248.2191
58297.6354 248.2366
58315.4303 248.2564
58322.3996 248.2642
58347.1673 248.2917
58349.0341 248.2938
58371.9384 248.3192
58382.6538 248.3312
58396.7130 248.3468
58416.2891 248.3686
58421.4911 248.3744
58446.2726 248.4020
58449.9403 248.4060
58471.0575 248.4296
58483.6074 248.4435
58495.8459 248.4572
58517.2902 248.4811
58520.6378 248.4848
58545.4331 248.5124
58550.9889 248.5186
58570.2319 248.5401
58584.7036 248.5562
58595.0342 248.5678
58618.4340 248.5939
58619.8399 248.5954
58644.6491 248.6231
58652.1806 248.6315
58669.4618 248.6508
58685.9431 248.6692
58694.2779 248.6786
58719.0976 248.7063
58719.7214 248.7070
58743.9207 248.7340
58753.5160 248.7448
58768.7473 248.7618
58787.3265 248.7826
58793.5773 248.7896
58818.4109 248.8174
58821.1530 248.8204
58843.2479 248.8452
58854.9958 248.8583
58868.0885 248.8730
58888.8545 248.8963
58892.9326 248.9008
58917.7801 248.9287
58922.7295 248.9342
58942.6311 248.9565
58956.6207 248.9722
58967.4856 248.9844
58990.5279 249.0102
58992.3437 249.0123
59017.2052 249.0402
59024.4515 249.0483
59042.0703 249.0681
59058.3913 249.0864
59066.9389 249.0960
59091.8110 249.1240
59092.3473 249.1246
59116.6865 249.1519
59126.3198 249.1627
59141.5656 249.1799
59160.3085 249.2010
59166.4483 249.2079
59191.3345 249.2359
59194.3136 249.2392
59216.2242 249.2639
59228.3351 249.2775
59241.1174 249.2919
59262.3729 249.3158
59266.0142 249.3199
59290.9145 249.3480
59296.4273 249.3542
59315.8183 249.3760
59330.4981 249.3926
59340.7257 249.4041
59364.5853 249.4310
59365.6367 249.4322
59390.5511 249.4603
59398.6893 249.4695
59415.4691 249.4884
59432.8096 249.5080
59440.3907 249.5166
59465.3159 249.5447
59466.9465 249.5466
59490.2446 249.5729
59501.1002 249.5852
59515.1768 249.6011
59535.2704 249.6238
59540.1127 249.6292
59565.0521 249.6575
59569.4572 249.6624
59589.9951 249.6857
59603.6609 249.7011
59614.9417 249.7139
59637.8811 249.7399
59639.8918 249.7421
59664.8456 249.7704
59672.1183 249.7786
59689.8029 249.7987
59706.3722 249.8175
59714.7638 249.8270
59739.7283 249.8553
59740.6427 249.8563
59764.6964 249.8836
59774.9304 249.8952
59789.6681 249.9119
59809.2348 249.9341
59814.6435 249.9403
59839.6224 249.9686
59843.5561 249.9731
59864.6049 249.9970
59877.8944 250.0121
59889.5911 250.0254
59912.2496 250.0511
59914.5809 250.0538
59939.5743 250.0822
59946.6219 250.0902
59964.5713 250.1106
59981.0112 250.1293
59989.5720 250.1391
60014.5764 250.1675
60015.4175 250.1685
60039.5843 250.1960
60049.8411 250.2077
60064.5959 250.2245
60084.2816 250.2469
60089.6112 250.2530
60114.6301 250.2815
60118.7394 250.2862
60139.6527 250.3100
60153.2144 250.3255
60164.6789 250.3386
60187.7066 250.3648
60189.7088 250.3671
60214.7424 250.3957
60222.2161 250.4042
60239.7796 250.4243
60256.7429 250.4437
60264.8206 250.4529
60289.8653 250.4815
60291.2869 250.4831
60314.9135 250.5101
60325.8485 250.5226
60339.9655 250.5388
60360.4274 250.5622
60365.0213 250.5674
60390.0807 250.5961
60395.0237 250.6018
60415.1438 250.6248
60429.6376 250.6414
60440.2107 250.6535
60464.2688 250.6810
60465.2813 250.6822
60490.3555 250.7109
60498.9177 250.7208
60515.4335 250.7397
60533.5842 250.7605
60540.5153 250.7684
60565.6008 250.7972
60568.2682 250.8003
60590.6900 250.8260
60602.9700 250.8401
60615.7830 250.8548
60637.6893 250.8800
60640.8798 250.8836
60665.9803 250.9125
60672.4264 250.9199
60691.0845 250.9413
60707.1814 250.9598
60716.1926 250.9702
60741.3044 250.9991
60741.9539 250.9998
60766.4200 251.0280
60776.7446 251.0398
60791.5394 251.0569
60811.5529 251.0799
60816.6626 251.0858
60841.7896 251.1147
60846.3792 251.1200
60866.9203 251.1437
60881.2236 251.1602
60892.0549 251.1726
60916.0857 251.2004
60917.1934 251.2016
60942.3356 251.2306
60950.9661 251.2406
60967.4816 251.2596
60985.8644 251.2809
60992.6315 251.2887
61017.7852 251.3177
61020.7808 251.3212
61042.9428 251.3468
61055.7155 251.3615
61068.1042 251.3758
61090.6682 251.4019
61093.2695 251.4049
61118.4386 251.4340
61125.6392 251.4424
61143.6115 251.4632
61160.6285 251.4828
61168.7884 251.4923
61193.9692 251.5214
61195.6360 251.5234
61219.1538 251.5506
61230.6620 251.5639
61244.3423 251.5798
61265.7062 251.6045
61269.5347 251.6090
61294.7310 251.6382
61300.7689 251.6452
61319.9312 251.6674
61335.8501 251.6859
61345.1353 251.6967
61370.3434 251.7259
61370.9497 251.7266
61395.5554 251.7552
61406.0680 251.7674
61420.7712 251.7845
61441.2048 251.8082
61445.9911 251.8138
61471.2149 251.8431
61476.3602 251.8491
61496.4426 251.8724
61511.5343 251.8900
61521.6743 251.9018
61546.7270 251.9309
61546.9100 251.9311
61572.1496 251.9605
61581.9387 251.9719
61597.3932 251.9899
61617.1690 252.0130
61622.6408 252.0193
61647.8924 252.0488
61652.4182 252.0540
61673.1479 252.0782
61687.6863 252.0952
61698.4074 252.1077
61722.9731 252.1363
61723.6711 252.1371
61748.9386 252.1666
61758.2792 252.1775
61774.2102 252.1961
61793.6041 252.2188
61799.4858 252.2257
61824.7655 252.2552
61828.9481 252.2601
61850.0491 252.2848
61864.3113 252.3014
61875.3369 252.3143
61899.6934 252.3428
61900.6287 252.3439
61925.9245 252.3735
61935.0949 252.3842
61951.2244 252.4031
61970.5155 252.4257
61976.5284 252.4328
62001.8364 252.4624
62005.9554 252.4672
62027.1485 252.4921
62041.4146 252.5088
62052.4648 252.5218
62076.8931 252.5504
62077.7851 252.5515
62103.1095 252.5812
62112.3912 252.5921
62128.4380 252.6109
62147.9085 252.6338
62153.7707 252.6407
62179.1075 252.6704
62183.4454 252.6755
62204.4483 252.7002
62219.0019 252.7173
62229.7934 252.7300
62254.5778 252.7591
62255.1426 252.7598
62280.4959 252.7896
62290.1735 252.8010
62305.8533 252.8195
62325.7888 252.8430
62331.2150 252.8493
62356.5808 252.8792
62361.4238 252.8849
62381.9508 252.9091
62397.0786 252.9269
62407.3249 252.9390
62432.7033 252.9690
62432.7531 252.9690
62458.0858 252.9989
62468.4477 253.0111
62483.4726 253.0289
62504.1619 253.0533
62508.8636 253.0588
62534.2587 253.0888
62539.8962 253.0955
62559.6581 253.1188
62575.6505 253.1377
62585.0618 253.1489
62610.4697 253.1789
62611.4247 253.1800
62635.8817 253.2090
62647.2193 253.2224
62661.2981 253.2391
62683.0337 253.2648
62686.7187 253.2691
62712.1436 253.2993
62718.8685 253.3072
62737.5727 253.3294
62754.7234 253.3497
62763.0062 253.3595
62788.4439 253.3897
62790.5986 253.3922
62813.8859 253.4199
62826.4942 253.4348
62839.3322 253.4501
62862.4100 253.4775
62864.7828 253.4803
62890.2377 253.5105
62898.3465 253.5201
62915.6969 253.5408
62934.3033 253.5629
62941.1605 253.5710
62966.6285 253.6013
62970.2805 253.6056
62992.1007 253.6316
63006.2785 253.6485
63017.5773 253.6619
63042.2969 253.6913
63043.0583 253.6922
63068.5435 253.7226
63078.3362 253.7343
63094.0332 253.7530
63114.3960 253.7772
63119.5273 253.7833
63145.0257 253.8137
63150.4767 253.8202
63170.5285 253.8442
63186.5782 253.8633
63196.0358 253.8746
63221.5475 253.9051
63222.7004 253.9064
63247.0635 253.9355
63258.8438 253.9496
63272.5839 253.9660
63295.0079 253.9928
63298.1089 253.9965
63323.6382 254.0270
63331.1932 254.0361
63349.1719 254.0576
63367.3995 254.0794
63374.3812 254.0874
