SF_Version 0.9.3
19-Aug-2024 12:36:46
Temp(K) Pressure(MPa) Temp(K) Pressure(MPa)  Points 
258.7257 490.0000 240.0000 51.7935 1065.0000
###########################################################
D H (J/kg)  D S (J/(K*kg)
265818.5771 1027.4148
265832.7503 1027.4932
265846.8566 1027.5714
265860.8959 1027.6495
265874.8681 1027.7273
265878.9274 1027.7500
265888.7676 1027.8050
265902.5977 1027.8825
265916.3602 1027.9598
265930.0553 1028.0370
265943.6826 1028.1140
265957.2423 1028.1908
265970.7340 1028.2674
265984.1578 1028.3438
265997.5136 1028.4201
266010.8011 1028.4962
266024.0204 1028.5721
266037.1712 1028.6478
266050.2536 1028.7234
266063.2673 1028.7988
266076.2124 1028.8740
266089.0886 1028.9490
266094.7039 1028.9818
266101.8913 1029.0239
266114.6213 1029.0985
266127.2822 1029.1730
266139.8738 1029.2472
266152.3960 1029.3213
266164.8487 1029.3953
266177.2318 1029.4690
266189.5451 1029.5426
266201.7886 1029.6159
266213.9622 1029.6891
266226.0657 1029.7621
266238.0990 1029.8350
266250.0620 1029.9076
266261.9547 1029.9801
266273.7768 1030.0524
266282.7252 1030.1072
266285.5263 1030.1244
266297.1986 1030.1963
266308.8000 1030.2680
266320.3304 1030.3395
266331.7897 1030.4109
266343.1778 1030.4820
266354.4947 1030.5529
266365.7401 1030.6237
266376.9139 1030.6943
266388.0161 1030.7647
266399.0466 1030.8349
266410.0052 1030.9049
266420.8918 1030.9747
266431.7063 1031.0444
266442.4486 1031.1138
266446.3417 1031.1391
266453.1129 1031.1831
266463.7014 1031.2521
266474.2174 1031.3210
266484.6607 1031.3896
266495.0312 1031.4581
266505.3287 1031.5264
266515.5532 1031.5944
266525.7046 1031.6623
266535.7827 1031.7300
266545.7875 1031.7976
266555.7187 1031.8649
266565.5764 1031.9320
266575.3603 1031.9989
266585.0704 1032.0657
266588.2743 1032.0878
266594.7003 1032.1322
266604.2530 1032.1985
266613.7315 1032.2646
266623.1356 1032.3305
266632.4653 1032.3963
266641.7205 1032.4618
266650.9010 1032.5271
266660.0067 1032.5923
266669.0375 1032.6572
266677.9933 1032.7220
266686.8740 1032.7865
266695.6794 1032.8509
266704.4095 1032.9150
266710.7521 1032.9619
266713.0614 1032.9789
266721.6306 1033.0427
266730.1241 1033.1062
266738.5417 1033.1695
266746.8833 1033.2326
266755.1488 1033.2955
266763.3382 1033.3582
266771.4511 1033.4207
266779.4877 1033.4831
266787.4477 1033.5452
266795.3310 1033.6071
266803.1375 1033.6688
266810.8671 1033.7303
266815.6352 1033.7684
266818.5159 1033.7915
266826.0812 1033.8526
266833.5691 1033.9135
266840.9797 1033.9741
266848.3127 1034.0345
266855.5681 1034.0948
266862.7457 1034.1548
266869.8455 1034.2146
266876.8672 1034.2742
266883.8108 1034.3336
266890.6762 1034.3928
266897.4632 1034.4518
266904.1718 1034.5106
266904.5090 1034.5136
266910.7918 1034.5692
266917.3324 1034.6275
266923.7943 1034.6856
266930.1771 1034.7435
266936.4808 1034.8012
266942.7054 1034.8587
266948.8505 1034.9160
266954.9162 1034.9731
266960.9024 1035.0299
266966.8088 1035.0866
266972.6354 1035.1430
266978.3820 1035.1992
266978.7072 1035.2024
266984.0383 1035.2552
266989.6137 1035.3109
266995.1088 1035.3665
267000.5234 1035.4218
267005.8574 1035.4769
267011.1107 1035.5318
267016.2832 1035.5865
267021.3746 1035.6410
267026.3850 1035.6952
267031.3142 1035.7493
267036.1620 1035.8031
267039.3937 1035.8394
267040.9247 1035.8567
267045.5981 1035.9100
267050.1898 1035.9631
267054.6996 1036.0160
267059.1274 1036.0687
267063.4730 1036.1212
267067.7364 1036.1734
267071.9173 1036.2254
267076.0157 1036.2772
267080.0314 1036.3288
267083.9642 1036.3802
267087.5915 1036.4284
267087.8135 1036.4313
267091.5688 1036.4822
267095.2408 1036.5329
267098.8294 1036.5833
267102.3346 1036.6335
267105.7560 1036.6835
267109.0937 1036.7332
267112.3475 1036.7828
267115.5172 1036.8321
267118.6027 1036.8812
267121.6038 1036.9300
267124.1637 1036.9727
267124.5190 1036.9787
267127.3391 1037.0270
267130.0744 1037.0751
267132.7248 1037.1230
267135.2901 1037.1707
267137.7701 1037.2182
267140.1648 1037.2654
267142.4741 1037.3124
267144.6976 1037.3591
267146.8354 1037.4057
267148.8873 1037.4520
267149.8870 1037.4753
267150.8470 1037.4980
267152.7142 1037.5438
267154.4951 1037.5893
267156.1894 1037.6347
267157.7970 1037.6797
267159.3179 1037.7246
267160.7517 1037.7692
267162.0984 1037.8136
267163.3579 1037.8578
267164.5299 1037.9017
267165.4548 1037.9388
267165.6125 1037.9453
267166.5966 1037.9887
267167.4929 1038.0319
267168.3012 1038.0748
267169.0212 1038.1175
267169.6530 1038.1599
267170.1963 1038.2021
267170.6509 1038.2441
267171.0169 1038.2858
267171.2939 1038.3273
267171.4696 1038.3656
267171.4809 1038.3686
267171.5667 1038.4095
267171.5631 1038.4502
267171.4700 1038.4907
267171.2873 1038.5309
267171.0147 1038.5709
267170.6522 1038.6106
267170.1995 1038.6501
267169.6566 1038.6894
267169.0233 1038.7284
267168.4802 1038.7577
267168.2963 1038.7671
267167.4684 1038.8056
267166.5497 1038.8438
267165.5400 1038.8818
267164.4391 1038.9195
267163.2469 1038.9570
267161.9633 1038.9942
267160.5880 1039.0312
267159.1210 1039.0680
267157.5620 1039.1044
267156.9927 1039.1170
267155.9021 1039.1406
267154.1453 1039.1766
267152.2961 1039.2122
267150.3543 1039.2477
267148.3199 1039.2828
267146.1926 1039.3178
267143.9723 1039.3524
267141.6589 1039.3868
267139.2521 1039.4210
267137.4611 1039.4454
267136.7480 1039.4549
267134.1403 1039.4885
267131.4388 1039.5218
267128.6433 1039.5549
267125.7538 1039.5878
267122.7699 1039.6203
267119.6917 1039.6527
267116.5188 1039.6847
267113.2513 1039.7165
267110.2981 1039.7442
267109.8871 1039.7481
267106.4153 1039.7793
267102.8483 1039.8102
267099.1859 1039.8410
267095.4279 1039.8714
267091.5741 1039.9016
267087.6245 1039.9315
267083.5787 1039.9612
267079.4368 1039.9906
267075.8744 1040.0151
267075.1961 1040.0197
267070.8466 1040.0485
267066.4003 1040.0771
267061.8571 1040.1053
267057.2168 1040.1334
267052.4792 1040.1611
267047.6441 1040.1886
267042.7114 1040.2158
267037.6808 1040.2428
267034.5322 1040.2592
267032.5466 1040.2694
267027.3051 1040.2958
267021.9652 1040.3218
267016.5267 1040.3477
267010.9895 1040.3732
267005.3535 1040.3985
266999.6183 1040.4235
266993.7839 1040.4482
266987.8500 1040.4726
266986.5876 1040.4777
266981.8045 1040.4968
266975.6560 1040.5206
266969.4075 1040.5442
266963.0588 1040.5675
266956.6096 1040.5905
266950.0599 1040.6132
266943.4095 1040.6357
266936.6580 1040.6579
266932.3188 1040.6718
266929.7998 1040.6798
266922.8305 1040.7013
266915.7596 1040.7226
266908.5869 1040.7436
266901.3123 1040.7644
266893.9357 1040.7848
266886.4567 1040.8050
266878.8752 1040.8249
266871.9947 1040.8424
266871.1893 1040.8444
266863.3865 1040.8637
266855.4806 1040.8827
266847.4713 1040.9013
266839.3586 1040.9197
266831.1421 1040.9378
266822.8218 1040.9556
266814.3974 1040.9732
266805.8687 1040.9904
266805.8526 1040.9905
266797.2195 1041.0073
266788.4655 1041.0239
266779.6067 1041.0402
266770.6427 1041.0562
266761.5734 1041.0720
266752.3987 1041.0874
266743.1182 1041.1025
266734.1160 1041.1168
266733.7311 1041.1174
266724.2223 1041.1319
266714.6071 1041.1460
266704.8853 1041.1599
266695.0568 1041.1735
266685.1213 1041.1868
266675.0786 1041.1998
266664.9286 1041.2125
266656.9948 1041.2221
266654.6672 1041.2249
266644.2852 1041.2370
266633.7951 1041.2487
266623.1968 1041.2601
266612.4900 1041.2713
266601.6746 1041.2821
266590.7503 1041.2926
266579.7169 1041.3029
266574.6862 1041.3074
266568.5649 1041.3127
266557.2957 1041.3223
266545.9168 1041.3315
266534.4279 1041.3405
266522.8288 1041.3491
266511.1193 1041.3574
266499.2992 1041.3654
266487.3756 1041.3731
266487.3682 1041.3731
266475.3090 1041.3804
266463.1384 1041.3874
266450.8563 1041.3941
266438.4625 1041.4005
266425.9566 1041.4066
266413.3386 1041.4123
266400.6081 1041.4178
266395.2204 1041.4199
266387.7548 1041.4228
266374.7812 1041.4276
266361.6946 1041.4320
266348.4945 1041.4361
266335.1809 1041.4399
266321.7534 1041.4433
266308.2118 1041.4465
266298.3908 1041.4485
266294.5510 1041.4493
266280.7629 1041.4517
266266.8600 1041.4538
266252.8420 1041.4556
266238.7088 1041.4571
266224.4601 1041.4582
266210.0957 1041.4590
266197.0322 1041.4594
266195.6135 1041.4595
266180.9988 1041.4595
266166.2676 1041.4593
266151.4197 1041.4587
266136.4548 1041.4578
266121.3728 1041.4566
266106.1732 1041.4550
266091.2819 1041.4532
266090.8554 1041.4531
266075.4019 1041.4508
266059.8301 1041.4481
266044.1398 1041.4452
266028.3308 1041.4419
266012.4029 1041.4382
265996.3556 1041.4342
265981.2702 1041.4302
265980.1877 1041.4299
265963.8826 1041.4251
265947.4574 1041.4201
265930.9120 1041.4146
265914.2460 1041.4089
265897.4592 1041.4028
265880.5514 1041.3963
265867.1200 1041.3910
265863.5182 1041.3895
265846.3484 1041.3823
265829.0568 1041.3747
265811.6430 1041.3668
265794.1068 1041.3586
265776.4479 1041.3500
265758.6660 1041.3410
265748.9475 1041.3360
265740.7521 1041.3317
265722.7042 1041.3220
265704.5325 1041.3119
265686.2368 1041.3014
265667.8167 1041.2906
265649.2719 1041.2795
265630.6022 1041.2680
265626.8627 1041.2656
265611.7918 1041.2561
265592.8519 1041.2438
265573.7863 1041.2311
265554.5946 1041.2181
265535.2766 1041.2047
265515.8319 1041.1910
265500.9650 1041.1802
265496.2556 1041.1768
265476.5370 1041.1623
265456.6910 1041.1474
265436.7171 1041.1321
265416.6151 1041.1164
265396.3848 1041.1004
265376.0258 1041.0840
265371.3531 1041.0802
265355.5224 1041.0672
265334.8851 1041.0500
265314.1183 1041.0324
265293.2215 1041.0145
265272.1947 1040.9962
265251.0373 1040.9775
265238.1183 1040.9659
265229.7412 1040.9584
265208.3018 1040.9388
265186.7309 1040.9189
265165.0283 1040.8986
265143.1938 1040.8780
265121.2270 1040.8569
265101.3510 1040.8376
265099.1255 1040.8355
265076.8726 1040.8136
265054.4865 1040.7913
265031.9668 1040.7686
265009.3133 1040.7456
264986.5256 1040.7221
264963.6035 1040.6983
264961.1317 1040.6957
264940.5280 1040.6740
264917.3151 1040.6493
264893.9668 1040.6242
264870.4827 1040.5988
264846.8626 1040.5729
264823.1062 1040.5466
264817.5409 1040.5404
264799.1968 1040.5199
264775.1454 1040.4928
264750.9567 1040.4652
264726.6303 1040.4373
264702.1659 1040.4089
264677.5632 1040.3802
264670.6559 1040.3721
264652.8064 1040.3510
264627.9046 1040.3214
264602.8634 1040.2913
264577.6826 1040.2609
264552.3618 1040.2300
264526.9007 1040.1988
264520.5489 1040.1909
264501.2826 1040.1670
264475.5181 1040.1348
264449.6122 1040.1023
264423.5646 1040.0693
264397.3750 1040.0359
264371.0430 1040.0020
264367.2893 1039.9972
264344.5495 1039.9677
264317.9097 1039.9330
264291.1265 1039.8978
264264.1995 1039.8622
264237.1283 1039.8262
264210.9429 1039.7912
264209.9119 1039.7898
264182.5292 1039.7529
264155.0012 1039.7155
264127.3277 1039.6777
264099.5082 1039.6395
264071.5425 1039.6009
264051.5713 1039.5731
264043.4236 1039.5618
264015.1416 1039.5222
263986.7122 1039.4821
263958.1351 1039.4417
263929.4098 1039.4008
263900.5360 1039.3594
263889.2361 1039.3432
263871.4993 1039.3176
263842.3045 1039.2753
263812.9600 1039.2326
263783.4655 1039.1894
263753.8205 1039.1457
263724.0247 1039.1017
263723.9944 1039.1016
263694.0546 1039.0571
263663.9329 1039.0120
263633.6591 1038.9665
263603.2330 1038.9206
263572.6541 1038.8742
263555.8976 1038.8486
263541.9113 1038.8273
263511.0022 1038.7799
263479.9391 1038.7320
263448.7216 1038.6837
263417.3492 1038.6349
263385.8217 1038.5857
263385.0000 1038.5844
263354.1154 1038.5359
263322.2524 1038.4856
263290.2330 1038.4349
263258.0567 1038.3837
263225.7231 1038.3321
263211.3482 1038.3090
263193.2184 1038.2799
263160.5450 1038.2273
263127.7129 1038.1741
263094.7219 1038.1205
263061.5714 1038.0664
263034.9911 1038.0228
263028.2562 1038.0118
262994.7613 1037.9566
262961.1057 1037.9010
262927.2890 1037.8449
262893.3106 1037.7883
262859.1702 1037.7313
262855.9730 1037.7259
262824.8451 1037.6736
262790.3547 1037.6155
262755.7010 1037.5569
262720.8834 1037.4977
262685.9016 1037.4381
262674.3373 1037.4184
262650.7384 1037.3780
262615.4019 1037.3173
262579.8997 1037.2561
262544.2315 1037.1944
262508.3967 1037.1322
262490.1261 1037.1004
262472.3825 1037.0695
262436.1881 1037.0062
262399.8258 1036.9424
262363.2950 1036.8781
262326.5953 1036.8133
262303.3792 1036.7722
262289.7169 1036.7480
262252.6526 1036.6821
262215.4180 1036.6157
262178.0125 1036.5487
262140.4358 1036.4812
262114.1348 1036.4339
262102.6795 1036.4132
262064.7330 1036.3446
262026.6137 1036.2755
261988.3212 1036.2059
261949.8548 1036.1357
261922.4294 1036.0855
261911.2067 1036.0650
261872.3653 1035.9937
261833.3486 1035.9218
261794.1560 1035.8494
261754.7871 1035.7765
261728.2979 1035.7273
261715.2328 1035.7030
261675.4834 1035.6289
261635.5561 1035.5543
261595.4503 1035.4791
261555.1655 1035.4034
261531.7731 1035.3593
261514.6901 1035.3271
261474.0192 1035.2502
261433.1677 1035.1727
261392.1350 1035.0947
261350.9206 1035.0162
261332.8861 1034.9817
261309.5088 1034.9370
261267.9025 1034.8572
261226.1128 1034.7769
261184.1390 1034.6960
261141.9808 1034.6145
261131.6663 1034.5945
261099.6169 1034.5324
261057.0607 1034.4497
261014.3182 1034.3664
260971.3889 1034.2826
260928.2720 1034.1982
260928.1413 1034.1979
260884.9398 1034.1131
260841.4188 1034.0274
260797.7086 1033.9412
260753.8084 1033.8544
260722.3398 1033.7920
260709.7099 1033.7669
260665.4005 1033.6788
260620.8993 1033.5901
260576.2057 1033.5008
260531.3192 1033.4109
260514.2842 1033.3767
260486.2216 1033.3204
260440.9191 1033.2292
260395.4217 1033.1374
260349.7288 1033.0450
260303.9969 1032.9524
260303.8395 1032.9520
260257.7252 1032.8583
260211.4133 1032.7640
260164.9032 1032.6691
260118.1942 1032.5736
260091.5047 1032.5189
260071.2734 1032.4774
260024.1360 1032.3805
259976.7977 1032.2830
259929.2577 1032.1848
259881.5155 1032.0861
259876.8226 1032.0763
259833.5442 1031.9866
259785.3663 1031.8864
259736.9839 1031.7857
259688.3964 1031.6843
259659.9752 1031.6248
259639.5909 1031.5822
259590.5617 1031.4794
259541.3252 1031.3759
259491.8806 1031.2718
259442.2273 1031.1671
259440.9757 1031.1644
259392.3356 1031.0616
259342.2328 1030.9554
259291.9190 1030.8486
259241.3933 1030.7411
259219.8482 1030.6952
259190.6380 1030.6329
259139.6565 1030.5240
259088.4609 1030.4144
259037.0504 1030.3041
258996.6027 1030.2172
258985.4177 1030.1931
258933.5447 1030.0814
258881.4545 1029.9690
258829.1461 1029.8558
258776.6189 1029.7421
258771.2571 1029.7304
258723.8445 1029.6275
258670.8463 1029.5122
258617.6268 1029.3962
258564.1851 1029.2795
258543.8282 1029.2350
258510.5012 1029.1620
258456.5816 1029.0438
258402.4372 1028.9249
258348.0672 1028.8052
258314.3257 1028.7309
258293.4588 1028.6848
258238.6038 1028.5636
258183.5204 1028.4417
258128.2080 1028.3191
258082.7627 1028.2182
258072.6598 1028.1957
258016.8549 1028.0715
257960.8181 1027.9465
257904.5486 1027.8208
257849.1514 1027.6969
257848.0448 1027.6944
257791.2752 1027.5671
257734.2701 1027.4391
257677.0285 1027.3103
257619.5495 1027.1807
257613.5061 1027.1671
257561.8033 1027.0503
257503.8145 1026.9191
257445.5854 1026.7871
257387.1150 1026.6544
257375.8342 1026.6288
257328.3762 1026.5208
257269.3878 1026.3864
257210.1553 1026.2512
257150.6775 1026.1152
257136.1450 1026.0820
257090.9287 1025.9784
257030.9246 1025.8407
256970.6722 1025.7022
256910.1705 1025.5630
256894.4472 1025.5267
256849.3939 1025.4228
256788.3573 1025.2818
256727.0683 1025.1400
256665.5257 1024.9973
256650.7490 1024.9630
256603.7030 1024.8538
256541.6167 1024.7094
256479.2735 1024.5641
256416.6725 1024.4181
256405.0576 1024.3909
256353.7850 1024.2711
256290.6311 1024.1232
256227.2160 1023.9745
256163.5385 1023.8249
256157.3792 1023.8105
256099.5667 1023.6744
256035.3269 1023.5230
255970.8213 1023.3708
255907.7204 1023.2216
255906.0478 1023.2176
255840.9726 1023.0635
255775.6280 1022.9085
255710.0129 1022.7526
255656.0899 1022.6243
255644.1197 1022.5958
255577.9250 1022.4381
255511.4561 1022.2794
255444.7117 1022.1198
255402.4883 1022.0187
255377.6777 1021.9593
255310.3436 1021.7978
255242.7302 1021.6354
255174.8363 1021.4720
255146.9188 1021.4048
255106.6397 1021.3077
255038.1455 1021.1424
254969.3668 1020.9761
254900.3025 1020.8089
254889.3835 1020.7825
254830.9209 1020.6407
254761.2452 1020.4715
254691.2797 1020.3013
254629.8893 1020.1518
254621.0187 1020.1302
254550.4334 1019.9580
254479.5543 1019.7848
254408.3799 1019.6106
254368.4402 1019.5128
254336.8927 1019.4354
254265.0868 1019.2592
254192.9815 1019.0819
254120.5752 1018.9037
254105.0293 1018.8654
254047.8373 1018.7243
253974.7876 1018.5440
253901.4325 1018.3626
253839.6632 1018.2096
253827.7645 1018.1801
253753.7566 1017.9966
253679.4388 1017.8120
253604.8096 1017.6263
253572.3449 1017.5455
253529.8460 1017.4396
253454.5513 1017.2517
253378.9405 1017.0628
253303.0617 1016.8730
253303.0120 1016.8729
253226.7259 1016.6817
253150.1188 1016.4894
253073.1891 1016.2961
253031.8343 1016.1921
252995.9172 1016.1017
252918.2988 1015.9060
252840.3527 1015.7093
252762.0774 1015.5115
252758.6369 1015.5028
252683.4337 1015.3124
252604.4556 1015.1122
252525.1431 1014.9109
252483.4909 1014.8050
252445.4756 1014.7083
252365.4494 1014.5046
252285.0835 1014.2997
252206.3708 1014.0988
252204.3751 1014.0937
252123.2844 1013.8864
252041.8484 1013.6779
251960.0655 1013.4682
251927.2984 1013.3841
251877.9094 1013.2573
251795.3864 1013.0451
251712.5107 1012.8317
251646.2494 1012.6609
251629.2721 1012.6172
251545.6445 1012.4012
251461.6584 1012.1841
251377.3118 1011.9657
251363.2302 1011.9293
251292.5684 1011.7460
251207.4537 1011.5251
251121.9725 1011.3028
251078.2395 1011.1890
251036.1023 1011.0793
250949.8403 1010.8544
250863.2056 1010.6282
250791.2614 1010.4402
250776.1889 1010.4008
250688.7604 1010.1719
250600.9528 1009.9417
250512.7641 1009.7103
250502.3001 1009.6828
250424.1544 1009.4773
250335.1540 1009.2431
250245.7659 1009.0075
250211.3538 1008.9167
250155.9611 1008.7705
250065.7475 1008.5321
249975.1393 1008.2923
249918.4063 1008.1420
249884.1177 1008.0511
249792.6697 1007.8084
249700.8201 1007.5644
249623.4522 1007.3585
249608.5594 1007.3189
249515.8553 1007.0719
249422.7424 1006.8235
249329.2181 1006.5737
249326.4878 1006.5664
249235.2369 1006.3222
249140.8381 1006.0694
249046.0205 1005.8151
249027.5152 1005.7654
248950.7453 1005.5592
248855.0374 1005.3018
248758.9029 1005.0429
248726.5154 1004.9556
248662.3091 1004.7824
248565.2681 1004.5204
248467.7925 1004.2568
248423.4809 1004.1369
248369.8546 1003.9917
248271.4557 1003.7249
248172.6141 1003.4566
248118.4034 1003.3093
248073.3059 1003.1867
247973.5238 1002.9151
247873.2904 1002.6420
247811.2740 1002.4728
247772.5848 1002.3671
247671.3931 1002.0906
247569.7413 1001.8125
247502.0834 1001.6272
247467.6105 1001.5327
247364.9821 1001.2511
247261.8845 1000.9679
247190.8214 1000.7725
247158.2997 1000.6830
247054.2064 1000.3963
246949.6347 1000.1080
246877.4772 999.9087
246844.5662 999.8178
246738.9792 999.5259
246632.9041 999.2322
246562.0396 999.0358
246526.3211 998.9367
246419.2105 998.6394
246311.6017 998.3403
246244.4963 998.1536
246203.4726 998.0394
246094.8075 997.7365
245985.6339 997.4319
245924.8348 997.2621
245875.9259 997.1254
245765.6743 996.8169
245654.9035 996.5066
245603.0417 996.3612
245543.5828 996.1944
245431.7117 995.8801
245319.3104 995.5641
245279.1029 995.4509
245206.3420 995.2459
245092.8172 994.9258
244978.7509 994.6038
244953.0038 994.5310
244864.0986 994.2797
244748.8849 993.9535
244633.1178 993.6254
244624.7288 993.6016
244516.7442 993.2952
244399.8050 992.9629
244294.2733 992.6626
244282.2948 992.6285
244164.1666 992.2919
244045.4642 991.9533
243961.6202 991.7139
243926.1674 991.6126
243806.2497 991.2696
243685.7449 990.9245
243626.7445 990.7553
243564.6206 990.5771
243442.8734 990.2276
243320.5257 989.8758
243289.6279 989.7869
243197.5314 989.5217
243073.9132 989.1654
242950.2524 988.8085
242949.6804 988.8069
242824.7723 988.4459
242699.2403 988.0826
242608.6317 987.8201
242573.0633 987.7170
242446.2116 987.3490
242318.7211 986.9787
242264.7158 986.8216
242190.5534 986.6058
242061.7124 986.2306
241932.2174 985.8530
241918.4839 985.8129
241802.0107 985.4727
241671.1332 985.0901
241569.9451 984.7939
241539.5722 984.7049
241407.2900 984.3171
241274.3270 983.9269
241219.0648 983.7645
241140.6425 983.5340
241006.2409 983.1384
240871.1416 982.7404
240865.8061 982.7246
240735.2804 982.3395
240598.7073 981.9360
240510.1958 981.6742
240461.3971 981.5298
240323.3258 981.1208
240184.5271 980.7092
240152.1695 980.6132
240044.9471 980.2947
239904.6127 979.8774
239791.7261 979.5413
239763.5198 979.4573
239621.6237 979.0343
239478.9687 978.6084
239428.8492 978.4587
239335.5067 978.1796
239191.2502 977.7479
239063.4966 977.3651
239046.2072 977.3132
238900.3212 976.8754
238753.6429 976.4347
238695.6816 976.2604
238606.1252 975.9909
238457.7749 975.5440
238325.3405 975.1446
238308.6036 975.0941
238158.5519 974.6409
238007.6719 974.1846
237952.4951 974.0175
237855.9132 973.7250
237703.2864 973.2622
237577.0827 972.8791
237549.7966 972.7962
237395.3914 972.3268
237240.1198 971.8542
237199.1099 971.7292
237083.9224 971.3781
236926.8239 970.8986
236818.5398 970.5677
236768.8126 970.4157
236609.8536 969.9293
236449.9873 969.4395
236435.3372 969.3946
236289.1397 968.9460
236127.3611 968.4490
236049.5190 968.2096
235964.6112 967.9484
235800.8841 967.4441
235661.0074 967.0127
235636.1949 966.9362
235470.4823 966.4244
235303.8005 965.9090
235269.8188 965.8038
235136.0798 965.3897
234967.3556 964.8666
234875.9192 964.5828
234797.5983 964.3396
234626.7922 963.8086
234479.2572 963.3494
234454.9577 963.2738
234282.0289 962.7348
234108.0625 962.1919
234079.8426 962.1037
233932.9821 961.6447
233756.8305 961.0936
233677.6461 960.8455
233579.5658 960.5381
233401.1854 959.9785
233272.6155 959.5747
233221.6916 959.4146
233041.0376 958.8464
232864.7267 958.2911
232859.2684 958.2738
232676.2947 957.6967
232492.1853 957.1153
232454.0013 956.9946
232306.8618 956.5293
232120.3617 955.9387
232040.3737 955.6852
231932.6414 955.3435
231743.7010 954.7436
231623.8122 954.3626
231553.5328 954.1391
231362.1012 953.5297
231204.2918 953.0267
231169.4327 952.9156
230975.4574 952.2964
230781.7870 951.6775
230780.2345 951.6725
230583.6618 951.0434
230385.8151 950.4094
230356.3089 950.3148
230186.6029 949.7702
229986.0756 949.1259
229927.7945 948.9384
229784.1664 948.4763
229580.9003 947.8214
229496.2157 947.5483
229376.2343 947.1612
229170.1697 946.4955
229061.5461 946.1443
228962.6851 945.8244
228753.7603 945.1477
228623.7588 944.7262
228543.3934 944.4655
228331.5450 943.7775
228182.8269 943.2940
228118.2301 943.0838
227903.3926 942.3843
227738.7229 941.8474
227687.0619 941.6789
227469.1676 940.9675
227291.4191 940.3865
227249.7511 940.2502
227028.7303 939.5266
226840.8875 938.9109
226806.1558 938.7970
226581.9367 938.0610
226387.0995 937.4207
226356.1296 937.3188
226128.6377 936.5701
225930.0265 935.9156
225899.5211 935.8150
225668.6799 935.0532
225469.6394 934.3955
225436.1743 934.2848
225201.9047 933.5096
225005.9090 932.8603
224965.9280 932.7277
224728.1481 931.9388
224538.8055 931.3098
224488.6154 931.1430
224247.2409 930.3399
224068.2987 929.7439
224004.0644 929.5298
223759.0079 928.7124
223594.3579 928.1625
223512.0968 927.8876
223263.2677 927.0553
223116.9520 926.5654
223012.5279 926.2155
222759.8328 925.3680
222636.0490 924.9524
222505.1668 924.5127
222248.5088 923.6495
222151.6167 923.3234
221989.8158 922.7784
221729.0946 921.8992
221663.6222 921.6782
221466.2701 921.0117
221201.3819 920.1161
221172.0322 920.0167
220934.3176 919.2118
220676.8294 918.3389
220665.1491 918.2992
220393.7389 917.3778
220178.0116 916.6445
220120.1610 916.4477
219844.3060 915.5086
219675.5032 914.9333
219566.2002 914.5606
219285.7828 913.6033
219169.2687 913.2052
