SF_Version 0.9.3
03-Sep-2024 23:12:15 
Temp(K) Pressure(MPa)
273.4063 634.3997
273.4000 634.2682
273.3872 634.0000
273.3632 633.5000
273.3393 633.0000
273.3153 632.5000
273.3000 632.1811
273.2913 632.0000
273.2673 631.5000
273.2433 631.0000
273.2192 630.5000
273.2000 630.1004
273.1952 630.0000
273.1711 629.5000
273.1470 629.0000
273.1229 628.5000
273.1000 628.0262
273.0987 628.0000
273.0746 627.5000
273.0504 627.0000
273.0262 626.5000
273.0020 626.0000
273.0000 625.9583
272.9778 625.5000
272.9535 625.0000
272.9293 624.5000
272.9050 624.0000
272.9000 623.8967
272.8807 623.5000
272.8564 623.0000
272.8321 622.5000
272.8077 622.0000
272.8000 621.8414
272.7834 621.5000
272.7590 621.0000
272.7346 620.5000
272.7101 620.0000
272.7000 619.7924
272.6857 619.5000
272.6612 619.0000
272.6368 618.5000
272.6123 618.0000
272.6000 617.7495
272.5878 617.5000
272.5632 617.0000
272.5387 616.5000
272.5141 616.0000
272.5000 615.7129
272.4895 615.5000
272.4649 615.0000
272.4403 614.5000
272.4157 614.0000
272.4000 613.6825
272.3910 613.5000
272.3663 613.0000
272.3416 612.5000
272.3169 612.0000
272.3000 611.6582
272.2922 611.5000
272.2674 611.0000
272.2426 610.5000
272.2179 610.0000
272.2000 609.6400
272.1931 609.5000
272.1682 609.0000
272.1434 608.5000
272.1185 608.0000
272.1000 607.6279
272.0936 607.5000
272.0687 607.0000
272.0438 606.5000
272.0189 606.0000
272.0000 605.6219
271.9939 605.5000
271.9689 605.0000
271.9439 604.5000
271.9189 604.0000
271.9000 603.6219
271.8939 603.5000
271.8688 603.0000
271.8438 602.5000
271.8187 602.0000
271.8000 601.6279
271.7936 601.5000
271.7684 601.0000
271.7433 600.5000
271.7181 600.0000
271.7000 599.6398
271.6930 599.5000
271.6677 599.0000
271.6425 598.5000
271.6173 598.0000
271.6000 597.6578
271.5920 597.5000
271.5667 597.0000
271.5414 596.5000
271.5161 596.0000
271.5000 595.6816
271.4908 595.5000
271.4654 595.0000
271.4401 594.5000
271.4147 594.0000
271.4000 593.7113
271.3893 593.5000
271.3638 593.0000
271.3384 592.5000
271.3129 592.0000
271.3000 591.7470
271.2874 591.5000
271.2619 591.0000
271.2364 590.5000
271.2108 590.0000
271.2000 589.7884
271.1852 589.5000
271.1597 589.0000
271.1340 588.5000
271.1084 588.0000
271.1000 587.8357
271.0828 587.5000
271.0571 587.0000
271.0314 586.5000
271.0057 586.0000
271.0000 585.8887
270.9800 585.5000
270.9542 585.0000
270.9285 584.5000
270.9027 584.0000
270.9000 583.9475
270.8769 583.5000
270.8511 583.0000
270.8252 582.5000
270.8000 582.0121
270.7994 582.0000
270.7735 581.5000
270.7476 581.0000
270.7217 580.5000
270.7000 580.0824
270.6957 580.0000
270.6698 579.5000
270.6438 579.0000
270.6178 578.5000
270.6000 578.1584
270.5918 578.0000
270.5657 577.5000
270.5396 577.0000
270.5136 576.5000
270.5000 576.2401
270.4875 576.0000
270.4613 575.5000
270.4352 575.0000
270.4090 574.5000
270.4000 574.3274
270.3829 574.0000
270.3566 573.5000
270.3304 573.0000
270.3042 572.5000
270.3000 572.4203
270.2779 572.0000
270.2516 571.5000
270.2253 571.0000
270.2000 570.5188
270.1990 570.5000
270.1727 570.0000
270.1463 569.5000
270.1199 569.0000
270.1000 568.6229
270.0935 568.5000
270.0671 568.0000
270.0406 567.5000
270.0142 567.0000
270.0000 566.7325
269.9877 566.5000
269.9612 566.0000
269.9346 565.5000
269.9081 565.0000
269.9000 564.8477
269.8815 564.5000
269.8549 564.0000
269.8283 563.5000
269.8017 563.0000
269.8000 562.9683
269.7750 562.5000
269.7484 562.0000
269.7217 561.5000
269.7000 561.0944
269.6950 561.0000
269.6682 560.5000
269.6415 560.0000
269.6147 559.5000
269.6000 559.2260
269.5879 559.0000
269.5611 558.5000
269.5342 558.0000
269.5074 557.5000
269.5000 557.3630
269.4805 557.0000
269.4536 556.5000
269.4266 556.0000
269.4000 555.5054
269.3997 555.5000
269.3727 555.0000
269.3457 554.5000
269.3187 554.0000
269.3000 553.6533
269.2917 553.5000
269.2647 553.0000
269.2376 552.5000
269.2105 552.0000
269.2000 551.8064
269.1834 551.5000
269.1562 551.0000
269.1291 550.5000
269.1019 550.0000
269.1000 549.9649
269.0747 549.5000
269.0475 549.0000
269.0202 548.5000
269.0000 548.1288
268.9930 548.0000
268.9657 547.5000
268.9384 547.0000
268.9111 546.5000
268.9000 546.2979
268.8837 546.0000
268.8563 545.5000
268.8289 545.0000
268.8015 544.5000
268.8000 544.4723
268.7741 544.0000
268.7466 543.5000
268.7191 543.0000
268.7000 542.6520
268.6916 542.5000
268.6641 542.0000
268.6366 541.5000
268.6090 541.0000
268.6000 540.8369
268.5814 540.5000
268.5538 540.0000
268.5262 539.5000
268.5000 539.0269
268.4985 539.0000
268.4708 538.5000
268.4431 538.0000
268.4154 537.5000
268.4000 537.2222
268.3877 537.0000
268.3599 536.5000
268.3321 536.0000
268.3043 535.5000
268.3000 535.4227
268.2765 535.0000
268.2486 534.5000
268.2207 534.0000
268.2000 533.6283
268.1928 533.5000
268.1649 533.0000
268.1370 532.5000
268.1090 532.0000
268.1000 531.8390
268.0810 531.5000
268.0530 531.0000
268.0250 530.5000
268.0000 530.0548
267.9969 530.0000
267.9688 529.5000
267.9407 529.0000
267.9126 528.5000
267.9000 528.2757
267.8845 528.0000
267.8563 527.5000
267.8281 527.0000
267.8000 526.5017
267.7999 526.5000
267.7717 526.0000
267.7434 525.5000
267.7151 525.0000
267.7000 524.7327
267.6868 524.5000
267.6585 524.0000
267.6301 523.5000
267.6018 523.0000
267.6000 522.9687
267.5734 522.5000
267.5450 522.0000
267.5165 521.5000
267.5000 521.2098
267.4881 521.0000
267.4596 520.5000
267.4311 520.0000
267.4025 519.5000
267.4000 519.4558
267.3740 519.0000
267.3454 518.5000
267.3168 518.0000
267.3000 517.7068
267.2882 517.5000
267.2595 517.0000
267.2308 516.5000
267.2021 516.0000
267.2000 515.9627
267.1734 515.5000
267.1447 515.0000
267.1159 514.5000
267.1000 514.2236
267.0871 514.0000
267.0583 513.5000
267.0295 513.0000
267.0006 512.5000
267.0000 512.4893
266.9717 512.0000
266.9428 511.5000
266.9139 511.0000
266.9000 510.7600
266.8849 510.5000
266.8560 510.0000
266.8270 509.5000
266.8000 509.0355
266.7979 509.0000
266.7689 508.5000
266.7398 508.0000
266.7107 507.5000
266.7000 507.3159
266.6816 507.0000
266.6524 506.5000
266.6233 506.0000
266.6000 505.6011
266.5941 505.5000
266.5649 505.0000
266.5356 504.5000
266.5064 504.0000
266.5000 503.8911
266.4771 503.5000
266.4478 503.0000
266.4184 502.5000
266.4000 502.1859
266.3891 502.0000
266.3597 501.5000
266.3303 501.0000
266.3009 500.5000
266.3000 500.4854
266.2714 500.0000
266.2419 499.5000
266.2124 499.0000
266.2000 498.7898
266.1829 498.5000
266.1533 498.0000
266.1237 497.5000
266.1000 497.0988
266.0941 497.0000
266.0645 496.5000
266.0349 496.0000
266.0052 495.5000
266.0000 495.4126
265.9755 495.0000
265.9458 494.5000
265.9160 494.0000
265.9000 493.7311
265.8862 493.5000
265.8564 493.0000
265.8266 492.5000
265.8000 492.0542
265.7968 492.0000
265.7669 491.5000
265.7370 491.0000
265.7071 490.5000
265.7000 490.3821
265.6771 490.0000
265.6471 489.5000
265.6171 489.0000
265.6000 488.7146
265.5871 488.5000
265.5571 488.0000
265.5270 487.5000
265.5000 487.0517
265.4969 487.0000
265.4668 486.5000
265.4366 486.0000
265.4064 485.5000
265.4000 485.3934
265.3762 485.0000
265.3460 484.5000
265.3158 484.0000
265.3000 483.7398
265.2855 483.5000
265.2552 483.0000
265.2248 482.5000
265.2000 482.0906
265.1945 482.0000
265.1641 481.5000
265.1337 481.0000
265.1033 480.5000
265.1000 480.4461
265.0728 480.0000
265.0423 479.5000
265.0118 479.0000
265.0000 478.8061
264.9813 478.5000
264.9507 478.0000
264.9202 477.5000
264.9000 477.1707
264.8895 477.0000
264.8589 476.5000
264.8282 476.0000
264.8000 475.5397
264.7976 475.5000
264.7668 475.0000
264.7361 474.5000
264.7053 474.0000
264.7000 473.9133
264.6745 473.5000
264.6437 473.0000
264.6129 472.5000
264.6000 472.2913
264.5820 472.0000
264.5511 471.5000
264.5202 471.0000
264.5000 470.6738
264.4892 470.5000
264.4583 470.0000
264.4273 469.5000
264.4000 469.0608
264.3962 469.0000
264.3652 468.5000
264.3341 468.0000
264.3030 467.5000
264.3000 467.4521
264.2718 467.0000
264.2407 466.5000
264.2095 466.0000
264.2000 465.8480
264.1783 465.5000
264.1470 465.0000
264.1158 464.5000
264.1000 464.2482
264.0845 464.0000
264.0531 463.5000
264.0218 463.0000
264.0000 462.6528
263.9904 462.5000
263.9590 462.0000
263.9276 461.5000
263.9000 461.0617
263.8961 461.0000
263.8646 460.5000
263.8331 460.0000
263.8016 459.5000
263.8000 459.4750
263.7700 459.0000
263.7384 458.5000
263.7068 458.0000
263.7000 457.8927
263.6751 457.5000
263.6435 457.0000
263.6118 456.5000
263.6000 456.3146
263.5800 456.0000
263.5483 455.5000
263.5165 455.0000
263.5000 454.7409
263.4847 454.5000
263.4528 454.0000
263.4210 453.5000
263.4000 453.1715
263.3891 453.0000
263.3571 452.5000
263.3252 452.0000
263.3000 451.6063
263.2932 451.5000
263.2612 451.0000
263.2291 450.5000
263.2000 450.0454
263.1971 450.0000
263.1650 449.5000
263.1329 449.0000
263.1007 448.5000
263.1000 448.4887
263.0685 448.0000
263.0363 447.5000
263.0041 447.0000
263.0000 446.9364
262.9718 446.5000
262.9395 446.0000
262.9072 445.5000
262.9000 445.3882
262.8749 445.0000
262.8425 444.5000
262.8101 444.0000
262.8000 443.8442
262.7777 443.5000
262.7452 443.0000
262.7127 442.5000
262.7000 442.3044
262.6802 442.0000
262.6476 441.5000
262.6151 441.0000
262.6000 440.7688
262.5825 440.5000
262.5498 440.0000
262.5172 439.5000
262.5000 439.2373
262.4845 439.0000
262.4518 438.5000
262.4190 438.0000
262.4000 437.7100
262.3862 437.5000
262.3534 437.0000
262.3206 436.5000
262.3000 436.1868
262.2877 436.0000
262.2548 435.5000
262.2219 435.0000
262.2000 434.6677
262.1889 434.5000
262.1560 434.0000
262.1229 433.5000
262.1000 433.1527
262.0899 433.0000
262.0568 432.5000
262.0237 432.0000
262.0000 431.6418
261.9906 431.5000
261.9574 431.0000
261.9242 430.5000
261.9000 430.1350
261.8910 430.0000
261.8578 429.5000
261.8245 429.0000
261.8000 428.6323
261.7912 428.5000
261.7578 428.0000
261.7245 427.5000
261.7000 427.1336
261.6911 427.0000
261.6576 426.5000
261.6242 426.0000
261.6000 425.6389
261.5907 425.5000
261.5572 425.0000
261.5236 424.5000
261.5000 424.1483
261.4900 424.0000
261.4564 423.5000
261.4228 423.0000
261.4000 422.6617
261.3891 422.5000
261.3554 422.0000
261.3217 421.5000
261.3000 421.1790
261.2879 421.0000
261.2541 420.5000
261.2203 420.0000
261.2000 419.7004
261.1864 419.5000
261.1525 419.0000
261.1186 418.5000
261.1000 418.2257
261.0847 418.0000
261.0507 417.5000
261.0167 417.0000
261.0000 416.7549
260.9826 416.5000
260.9486 416.0000
260.9145 415.5000
260.9000 415.2882
260.8803 415.0000
260.8462 414.5000
260.8120 414.0000
260.8000 413.8253
260.7777 413.5000
260.7435 413.0000
260.7092 412.5000
260.7000 412.3663
260.6748 412.0000
260.6405 411.5000
260.6061 411.0000
260.6000 410.9113
260.5717 410.5000
260.5372 410.0000
260.5028 409.5000
260.5000 409.4601
260.4682 409.0000
260.4337 408.5000
260.4000 408.0128
260.3991 408.0000
260.3645 407.5000
260.3299 407.0000
260.3000 406.5694
260.2952 406.5000
260.2605 406.0000
260.2257 405.5000
260.2000 405.1299
260.1910 405.0000
260.1562 404.5000
260.1213 404.0000
260.1000 403.6942
260.0865 403.5000
260.0515 403.0000
260.0166 402.5000
260.0000 402.2623
259.9816 402.0000
259.9466 401.5000
259.9116 401.0000
259.9000 400.8343
259.8766 400.5000
259.8415 400.0000
259.8063 399.5000
259.8000 399.4100
259.7712 399.0000
259.7360 398.5000
259.7007 398.0000
259.7000 397.9895
259.6655 397.5000
259.6302 397.0000
259.6000 396.5728
259.5949 396.5000
259.5595 396.0000
259.5241 395.5000
259.5000 395.1599
259.4887 395.0000
259.4532 394.5000
259.4177 394.0000
259.4000 393.7508
259.3822 393.5000
259.3466 393.0000
259.3110 392.5000
259.3000 392.3454
259.2754 392.0000
259.2397 391.5000
259.2040 391.0000
259.2000 390.9437
259.1683 390.5000
259.1325 390.0000
259.1000 389.5457
259.0967 389.5000
259.0609 389.0000
259.0250 388.5000
259.0000 388.1515
258.9891 388.0000
258.9532 387.5000
258.9172 387.0000
258.9000 386.7609
258.8812 386.5000
258.8452 386.0000
258.8091 385.5000
258.8000 385.3741
258.7730 385.0000
258.7368 384.5000
258.7007 384.0000
258.7000 383.9908
258.6644 383.5000
258.6282 383.0000
258.6000 382.6113
258.5919 382.5000
258.5556 382.0000
258.5192 381.5000
258.5000 381.2355
258.4829 381.0000
258.4464 380.5000
258.4100 380.0000
258.4000 379.8632
258.3735 379.5000
258.3370 379.0000
258.3004 378.5000
258.3000 378.4946
258.2638 378.0000
258.2272 377.5000
258.2000 377.1297
258.1905 377.0000
258.1538 376.5000
258.1170 376.0000
258.1000 375.7683
258.0803 375.5000
258.0434 375.0000
258.0066 374.5000
258.0000 374.4105
257.9697 374.0000
257.9328 373.5000
257.9000 373.0563
257.8958 373.0000
257.8588 372.5000
257.8218 372.0000
257.8000 371.7057
257.7847 371.5000
257.7476 371.0000
257.7105 370.5000
257.7000 370.3587
257.6733 370.0000
257.6361 369.5000
257.6000 369.0151
257.5989 369.0000
257.5616 368.5000
257.5243 368.0000
257.5000 367.6752
257.4869 367.5000
257.4495 367.0000
257.4121 366.5000
257.4000 366.3388
257.3746 366.0000
257.3371 365.5000
257.3000 365.0059
257.2996 365.0000
257.2620 364.5000
257.2244 364.0000
257.2000 363.6766
257.1867 363.5000
257.1490 363.0000
257.1113 362.5000
257.1000 362.3507
257.0735 362.0000
257.0357 361.5000
257.0000 361.0282
256.9979 361.0000
256.9600 360.5000
256.9221 360.0000
256.9000 359.7094
256.8841 359.5000
256.8461 359.0000
256.8081 358.5000
256.8000 358.3939
256.7700 358.0000
256.7319 357.5000
256.7000 357.0819
256.6937 357.0000
256.6556 356.5000
256.6173 356.0000
256.6000 355.7734
256.5791 355.5000
256.5408 355.0000
256.5024 354.5000
256.5000 354.4683
256.4640 354.0000
256.4256 353.5000
256.4000 353.1667
256.3872 353.0000
256.3487 352.5000
256.3101 352.0000
256.3000 351.8684
256.2716 351.5000
256.2330 351.0000
256.2000 350.5736
256.1943 350.5000
256.1641 350.1095
