SF_Version 0.9.3
19-Aug-2024 12:36:46
Temp(K) Pressure(MPa) Temp(K) Pressure(MPa)  Points 
0.1000 1071.2224 270.0000 428.5270 3126.0000
###########################################################
D H (J/kg)  D S (J/(K*kg)
247693.4524 -3321.8646
247534.8387 -3321.8647
246821.5765 -3321.8620
246816.5504 -3321.8620
246108.2870 -3321.8538
245939.6506 -3321.8510
245394.9747 -3321.8397
245062.7289 -3321.8312
244681.6447 -3321.8198
244185.8276 -3321.8025
243968.3017 -3321.7940
243309.0386 -3321.7649
243254.9504 -3321.7623
242541.5954 -3321.7248
242432.5056 -3321.7185
241828.2415 -3321.6815
241556.3983 -3321.6634
241114.8938 -3321.6322
240680.9183 -3321.5993
240401.5580 -3321.5768
239806.2968 -3321.5256
239688.2408 -3321.5149
238974.9503 -3321.4459
238932.7873 -3321.4416
238261.6961 -3321.3691
238060.6577 -3321.3460
237548.4901 -3321.2836
237190.1661 -3321.2370
236835.3463 -3321.1882
236321.5779 -3321.1126
236122.2816 -3321.0815
235455.1503 -3320.9702
235409.3161 -3320.9621
234696.4734 -3320.8281
234591.1385 -3320.8070
233983.7802 -3320.6777
233729.7719 -3320.6198
233271.2665 -3320.5088
232871.2666 -3320.4053
232558.9660 -3320.3195
232015.8260 -3320.1599
231846.9154 -3320.1073
231163.6374 -3319.8803
231135.1547 -3319.8703
230423.7284 -3319.6059
230314.8813 -3319.5630
229712.6820 -3319.3120
229469.7095 -3319.2046
229002.0643 -3318.9864
228628.2651 -3318.8018
228291.9280 -3318.6268
227790.6810 -3318.3513
227582.3287 -3318.2309
226957.0779 -3317.8499
226873.3253 -3317.7964
226164.9805 -3317.3209
226127.5662 -3317.2946
225457.3598 -3316.8020
225302.2440 -3316.6824
224750.5257 -3316.2380
224481.1870 -3316.0109
224044.5438 -3315.6268
223664.4651 -3315.2777
223339.4803 -3314.9668
222852.1384 -3314.4809
222635.4018 -3314.2563
222044.2583 -3313.6191
221932.3753 -3313.4939
221240.8695 -3312.6906
221230.4684 -3312.6781
220529.7557 -3311.8072
220442.0173 -3311.6944
219830.3006 -3310.8805
219647.7286 -3310.6293
219132.1701 -3309.8968
218858.0300 -3309.4947
218435.4314 -3308.8554
218072.9439 -3308.2900
217740.1504 -3307.7553
217292.4874 -3307.0149
217046.3914 -3306.5961
216516.6737 -3305.6693
216354.2174 -3305.3772
215745.5128 -3304.2534
215663.6900 -3304.0983
214979.0128 -3302.7674
214974.8697 -3302.7591
214287.8249 -3301.3590
214217.1854 -3301.2117
213602.6057 -3299.8983
213460.0305 -3299.5867
212919.2682 -3298.3771
212707.5514 -3297.8931
212237.8675 -3296.7953
211959.7509 -3296.1317
211558.4566 -3295.1533
211216.6304 -3294.3032
210881.0871 -3293.4511
210478.1907 -3292.4085
210205.8086 -3291.6893
209744.4321 -3290.4486
209532.6693 -3289.8680
209015.3551 -3288.4246
208861.7159 -3287.9878
208290.9603 -3286.3375
208192.9940 -3286.0491
207571.2484 -3284.1885
207526.5478 -3284.0524
206862.4216 -3281.9981
206856.2208 -3281.9787
206200.6649 -3279.8866
206145.8811 -3279.7092
205541.3087 -3277.7187
205440.2260 -3277.3811
204884.3918 -3275.4952
204739.2560 -3274.9959
204229.9517 -3273.2165
204042.9718 -3272.5545
203578.0248 -3270.8834
203351.3743 -3270.0583
202928.6466 -3268.4966
202664.4649 -3267.5084
202281.8518 -3266.0567
201982.2452 -3264.9061
201637.6740 -3263.5643
201304.7172 -3262.2525
200996.1462 -3261.0202
200631.8832 -3259.5489
200357.3003 -3258.4250
199963.7451 -3256.7964
199721.1674 -3255.7794
199300.3053 -3253.9961
199087.7779 -3253.0841
198641.5660 -3251.1493
198457.1612 -3250.3397
197987.5294 -3248.2570
197829.3465 -3247.5469
197338.1975 -3245.3205
197204.3621 -3244.7064
196693.5725 -3242.3407
196582.2361 -3241.8189
196053.6560 -3239.3187
195962.9956 -3238.8849
195418.4497 -3236.2557
195346.6676 -3235.9052
194787.9547 -3233.1527
194733.2784 -3232.8803
194162.1720 -3230.0107
194122.8538 -3229.8109
193541.1024 -3226.8307
193515.4192 -3226.6976
192924.7463 -3223.6136
192910.9995 -3223.5411
192313.1040 -3220.3605
192309.6196 -3220.3418
191711.3065 -3217.1004
191706.1761 -3217.0724
191116.0827 -3213.8174
191103.9619 -3213.7500
190523.9705 -3210.4935
190506.4605 -3210.3944
189934.9933 -3207.1292
189913.6710 -3207.0064
189349.1743 -3203.7250
189325.5921 -3203.5869
188766.5366 -3200.2815
188742.2221 -3200.1368
188187.1029 -3196.7993
188163.5587 -3196.6568
187610.8960 -3193.2787
187589.5997 -3193.1477
187037.9382 -3189.7205
187020.3420 -3189.6104
186468.2520 -3186.1249
186455.7822 -3186.0457
185901.8594 -3182.4926
185895.9165 -3182.4542
185340.7408 -3178.8367
185338.7839 -3178.8239
184790.2508 -3175.1940
184779.0515 -3175.1192
184244.4407 -3171.5267
184222.6798 -3171.3791
183703.3048 -3167.8355
183669.6906 -3167.6040
183166.8370 -3164.1210
183120.1056 -3163.7943
182635.0306 -3160.3840
182573.9463 -3159.9506
182107.8786 -3156.6250
182031.2342 -3156.0731
181585.3735 -3152.8447
181491.9908 -3152.1623
181067.5073 -3149.0436
180956.2374 -3148.2187
180554.2716 -3145.2224
180423.9953 -3144.2425
180045.6576 -3141.3816
179895.2857 -3140.2342
179541.6560 -3137.5217
179370.1296 -3136.1942
179042.2571 -3133.6433
178848.5483 -3132.1228
178547.4508 -3129.7470
178330.5628 -3128.0203
178057.2264 -3125.8332
177816.1940 -3123.8872
177571.5731 -3121.9024
177305.4628 -3119.7238
177090.4795 -3117.9550
176798.3901 -3115.5304
176613.9337 -3113.9917
176294.9966 -3111.3074
176141.9238 -3110.0128
175795.3031 -3107.0551
175674.4371 -3106.0187
175299.3303 -3102.7738
175211.4608 -3102.0100
174807.0986 -3098.4638
174752.9814 -3097.9870
174318.6285 -3094.1255
174298.9854 -3093.9500
173849.4603 -3089.8996
173833.9603 -3089.7588
173404.3923 -3085.8362
173353.1217 -3085.3638
172963.7643 -3081.7599
172876.1083 -3080.9414
172527.5610 -3077.6714
172402.9400 -3076.4918
172095.7667 -3073.5708
171933.6366 -3072.0153
171668.3656 -3069.4585
171468.2178 -3067.5122
171245.3410 -3065.3350
171006.7029 -3062.9829
170826.6764 -3061.2004
170549.1111 -3058.4275
170412.3546 -3057.0551
170095.4615 -3053.8464
170002.3581 -3052.8995
169645.7726 -3049.2399
169596.6691 -3048.7337
169200.0631 -3044.6082
169195.2695 -3044.5582
168798.1457 -3040.3731
168758.4152 -3039.9506
168405.2747 -3036.1788
168320.7934 -3035.2683
168016.6368 -3031.9755
167887.2075 -3030.5616
167632.2128 -3027.7635
167457.6749 -3025.8308
167251.9828 -3023.5430
167032.2123 -3021.0763
166875.9271 -3019.3143
166610.8364 -3016.2982
166504.0252 -3015.0776
166193.5631 -3011.4970
166136.2568 -3010.8331
165780.4082 -3006.6728
165772.6008 -3006.5811
165413.0419 -3002.3218
165371.4641 -3001.8248
165057.5541 -2998.0554
164966.6852 -2996.9541
164706.1147 -2993.7820
164566.0714 -2992.0614
164358.7018 -2989.5020
164169.6363 -2987.1468
164015.2932 -2985.2155
163777.3929 -2982.2107
163675.8662 -2980.9226
163389.3538 -2977.2534
163340.3981 -2976.6236
163008.8663 -2972.3186
163005.5373 -2972.2750
162681.2541 -2968.0079
162626.0475 -2967.2746
162357.5311 -2963.6916
162250.7973 -2962.2538
162037.6733 -2959.3698
161879.7963 -2957.2130
161721.6569 -2955.0427
161513.0535 -2952.1525
161409.4576 -2950.7105
161150.5771 -2947.0725
161101.0510 -2946.3733
160796.4131 -2942.0313
160792.3833 -2941.9734
160495.5259 -2937.6846
160438.5770 -2936.8539
160198.3571 -2933.3334
160089.0581 -2931.7160
159904.8814 -2928.9778
159743.8315 -2926.5601
159615.0733 -2924.6179
159402.9011 -2921.3863
159328.9075 -2920.2539
159066.2703 -2916.1950
159046.3579 -2915.8858
158767.4043 -2911.5139
158734.0167 -2910.9857
158492.0183 -2907.1382
158406.1110 -2905.7590
158220.1705 -2902.7589
158082.5084 -2900.5159
157951.8343 -2898.3761
157763.2081 -2895.2567
157686.9833 -2893.9898
157448.2085 -2889.9818
157425.5906 -2889.6003
157167.6348 -2885.2075
157137.5762 -2884.6908
156913.0874 -2880.8117
156831.2890 -2879.3841
156661.9176 -2876.4129
156529.2897 -2874.0628
156414.0980 -2872.0111
156231.5725 -2868.7274
156169.6013 -2867.6066
155938.1302 -2863.3781
155928.4001 -2863.1994
155690.4746 -2858.7896
155649.0507 -2858.0143
155455.7914 -2854.3773
155364.2492 -2852.6371
155224.3210 -2849.9626
155083.6929 -2847.2473
154996.0355 -2845.5455
154807.3703 -2841.8453
154770.9072 -2841.1262
154548.9110 -2836.7047
154535.2999 -2836.4310
154330.0234 -2832.2811
154267.5165 -2831.0044
154114.2091 -2827.8555
154003.9228 -2825.5668
153901.4402 -2823.4279
153744.5028 -2820.1186
153691.6886 -2818.9985
153489.2397 -2814.6602
153484.9260 -2814.5673
153281.1336 -2810.1343
11049.8677 128.1766
11091.2583 128.0718
11114.8896 128.0136
11075.7647 128.1099
11080.4841 128.0981
11091.0155 128.0718
11101.5597 128.0457
11108.3183 128.0291
11112.1166 128.0198
11122.6860 127.9941
11133.2685 127.9686
11141.0137 127.9501
11143.8639 127.9433
11154.4721 127.9183
11165.0936 127.8934
11173.8528 127.8731
11175.7282 127.8687
11186.3758 127.8443
11197.0369 127.8201
11206.8375 127.7980
11207.7114 127.7960
11218.3990 127.7722
11229.1004 127.7486
11239.8154 127.7252
11239.9698 127.7248
11250.5438 127.7020
11261.2861 127.6790
11272.0423 127.6562
11273.2515 127.6537
11282.8121 127.6336
11293.5960 127.6113
11304.3940 127.5891
11306.6845 127.5844
11315.2059 127.5671
11326.0320 127.5454
11336.8724 127.5239
11340.2707 127.5172
11347.7270 127.5026
11358.5960 127.4814
11369.4796 127.4605
11374.0120 127.4519
11380.3776 127.4398
11391.2901 127.4194
11402.2174 127.3991
11407.9101 127.3886
11413.1594 127.3790
11424.1161 127.3592
11435.0878 127.3395
11441.9669 127.3273
11446.0745 127.3201
11457.0760 127.3008
11468.0927 127.2818
11476.1842 127.2680
11479.1246 127.2630
11490.1716 127.2444
11501.2340 127.2260
11510.5638 127.2107
11512.3118 127.2079
11523.4049 127.1899
11534.5136 127.1721
11545.1073 127.1554
11545.6380 127.1546
11556.7777 127.1373
11567.9333 127.1201
11579.1049 127.1032
11579.8166 127.1022
11590.2920 127.0865
11601.4951 127.0700
11612.7145 127.0538
11614.6935 127.0509
11623.9496 127.0377
11635.2009 127.0218
11646.4686 127.0062
11649.7396 127.0017
11657.7524 126.9908
11669.0526 126.9755
11680.3693 126.9605
11684.9566 126.9545
11691.7023 126.9457
11703.0519 126.9312
11714.4183 126.9168
11720.3463 126.9094
11725.8012 126.9026
11737.2009 126.8887
11748.6175 126.8749
11755.9104 126.8663
11760.0510 126.8614
11771.5013 126.8481
11782.9688 126.8350
11791.6506 126.8252
11794.4534 126.8221
11805.9550 126.8094
11817.4740 126.7969
11827.5684 126.7862
11829.0104 126.7847
11840.5639 126.7726
11852.1351 126.7608
11863.6656 126.7492
11863.7239 126.7492
11875.3299 126.7378
11886.9538 126.7266
11898.5955 126.7156
11899.9438 126.7144
11910.2548 126.7048
11921.9320 126.6943
11933.6273 126.6839
11936.4046 126.6815
11945.3404 126.6738
11957.0716 126.6639
11968.8210 126.6542
11973.0495 126.6508
11980.5885 126.6447
11992.3743 126.6354
12004.1786 126.6264
12009.8803 126.6221
12016.0011 126.6175
12027.8421 126.6089
12039.7017 126.6004
12046.8984 126.5954
12051.5799 126.5922
12063.4767 126.5842
12075.3923 126.5764
12084.1054 126.5709
12087.3267 126.5689
12099.2799 126.5615
12111.2521 126.5544
12121.5028 126.5484
12123.2434 126.5474
12135.2536 126.5407
12147.2830 126.5342
12159.0921 126.5280
12159.3317 126.5279
12171.3995 126.5218
12183.4867 126.5160
12195.5935 126.5103
12196.8747 126.5097
12207.7194 126.5049
12219.8650 126.4996
12232.0304 126.4946
12234.8522 126.4935
12244.2152 126.4898
12256.4197 126.4852
12268.6443 126.4809
12273.0260 126.4794
12280.8885 126.4767
12293.1526 126.4728
12305.4369 126.4690
12311.3974 126.4673
12317.7412 126.4655
12330.0655 126.4622
12342.4101 126.4591
12349.9679 126.4573
12354.7749 126.4562
12367.1599 126.4536
12379.5655 126.4511
12388.7388 126.4495
12391.9915 126.4489
12404.4378 126.4469
12416.9049 126.4451
12427.7115 126.4437
12429.3926 126.4435
12441.9008 126.4421
12454.4300 126.4409
12466.8872 126.4400
12466.9800 126.4400
12479.5507 126.4392
12492.1424 126.4387
12504.7554 126.4384
12506.2672 126.4384
12517.3891 126.4383
12530.0440 126.4384
12542.7203 126.4387
12545.8528 126.4388
12555.4177 126.4393
12568.1364 126.4400
12580.8767 126.4410
12585.6453 126.4414
12593.6382 126.4422
12606.4213 126.4435
12619.2260 126.4452
12625.6457 126.4460
12632.0523 126.4470
12644.9003 126.4490
12657.7701 126.4513
12665.8553 126.4528
12670.6617 126.4537
12683.5750 126.4564
12696.5104 126.4593
12706.2752 126.4616
12709.4679 126.4624
12722.4472 126.4657
12735.4487 126.4692
12746.9065 126.4725
12748.4726 126.4729
12761.5184 126.4769
12774.5866 126.4811
12787.6774 126.4854
12787.7504 126.4855
12800.7903 126.4900
12813.9258 126.4948
12827.0840 126.4998
12828.8079 126.5005
12840.2645 126.5051
12853.4678 126.5105
12866.6940 126.5162
12870.0800 126.5176
12879.9427 126.5220
12893.2143 126.5281
12906.5090 126.5344
12911.5679 126.5368
12919.8265 126.5409
12933.1670 126.5476
12946.5307 126.5546
12953.2726 126.5581
12959.9175 126.5617
12973.3274 126.5690
12986.7607 126.5766
12995.1951 126.5815
13000.2173 126.5844
13013.6972 126.5924
13027.2006 126.6006
13037.3363 126.6069
13040.7276 126.6090
13054.2780 126.6176
13067.8521 126.6265
13079.6973 126.6344
13081.4500 126.6355
13095.0714 126.6448
13108.7168 126.6543
13122.2790 126.6639
13122.3861 126.6640
13136.0791 126.6739
13149.7962 126.6840
13163.5375 126.6943
13165.0824 126.6955
13177.3026 126.7048
13191.0920 126.7156
13204.9058 126.7265
13208.1083 126.7291
13218.7436 126.7377
13232.6058 126.7491
13246.4926 126.7607
13251.3577 126.7648
13260.4036 126.7725
13274.3392 126.7845
13288.2995 126.7968
13294.8314 126.8025
13302.2843 126.8092
13316.2937 126.8218
13330.3281 126.8347
13338.5303 126.8423
13344.3872 126.8478
13358.4711 126.8611
13372.5800 126.8746
13382.4552 126.8841
13386.7139 126.8883
13400.8727 126.9022
13415.0568 126.9163
13426.6068 126.9280
13429.2661 126.9307
13443.5003 126.9452
13457.7600 126.9600
13470.9861 126.9739
13472.0451 126.9750
13486.3554 126.9902
13500.6912 127.0056
13515.0527 127.0212
13515.5936 127.0218
13529.4395 127.0370
13543.8520 127.0530
13558.2903 127.0693
13560.4302 127.0717
13572.7542 127.0857
13587.2439 127.1024
13601.7596 127.1192
13605.4965 127.1236
13616.3010 127.1363
13630.8684 127.1536
13645.4620 127.1711
13650.7933 127.1776
13660.0815 127.1888
13674.7271 127.2068
13689.3990 127.2249
13696.3211 127.2335
13704.0971 127.2432
13718.8215 127.2618
13733.5723 127.2806
13742.0805 127.2915
13748.3495 127.2995
13763.1530 127.3187
13777.9833 127.3381
13788.0722 127.3514
13792.8401 127.3577
13807.7233 127.3775
13822.6334 127.3975
13834.2968 127.4133
13837.5703 127.4178
13852.5338 127.4382
13867.5242 127.4589
13880.7546 127.4772
13882.5417 127.4797
13897.5859 127.5008
13912.6572 127.5221
13927.4464 127.5431
13927.7558 127.5436
13942.8811 127.5652
13958.0338 127.5871
13973.2139 127.6093
13974.3724 127.6110
13988.4209 127.6316
14003.6555 127.6541
14018.9175 127.6768
14021.5332 127.6808
14034.2068 127.6998
14049.5236 127.7229
14064.8681 127.7463
14068.9292 127.7525
14080.2401 127.7699
14095.6397 127.7937
14111.0672 127.8176
14116.5607 127.8262
14126.5223 127.8418
14142.0051 127.8662
14157.5160 127.8908
14164.4282 127.9019
14173.0547 127.9157
14188.6214 127.9407
14204.2161 127.9659
14212.5319 127.9794
14219.8389 127.9914
14235.4897 128.0170
14251.1689 128.0428
14260.8723 128.0589
14266.8762 128.0689
14282.6117 128.0952
14298.3756 128.1216
14309.4495 128.1403
14314.1680 128.1483
14329.9886 128.1752
14345.8378 128.2023
14358.2639 128.2237
14361.7157 128.2296
14377.6219 128.2571
14393.5568 128.2848
14407.3157 128.3089
14409.5206 128.3127
14425.5128 128.3409
14441.5340 128.3692
14456.6051 128.3960
14457.5842 128.3977
14473.6629 128.4265
14489.7708 128.4554
14505.9078 128.4846
14506.1323 128.4850
14522.0735 128.5139
14538.2684 128.5435
14554.4927 128.5733
14555.8975 128.5758
14570.7458 128.6032
14587.0284 128.6334
14603.3403 128.6638
14605.9009 128.6686
14619.6814 128.6944
14636.0519 128.7252
14652.4520 128.7562
14656.1425 128.7632
14668.8814 128.7874
14685.3404 128.8188
14701.8291 128.8504
14706.6226 128.8596
14718.3473 128.8822
14734.8951 128.9142
14751.4729 128.9464
14757.3411 128.9579
14768.0803 128.9789
14784.7175 129.0115
14801.3847 129.0443
14808.2982 129.0580
14818.0818 129.0774
14834.8087 129.1106
14851.5659 129.1441
14859.4938 129.1599
14868.3530 129.1777
14885.1702 129.2115
14902.0176 129.2456
14910.9280 129.2637
14918.8953 129.2799
14935.8031 129.3143
14952.7413 129.3490
14962.6007 129.3692
14969.7099 129.3838
14986.7087 129.4189
15003.7382 129.4542
15014.5119 129.4766
15020.7981 129.4896
15037.8884 129.5253
15055.0095 129.5612
15066.6615 129.5857
15072.1612 129.5973
15089.3434 129.6335
15106.5564 129.6700
15119.0495 129.6966
15123.8003 129.7067
15141.0748 129.7436
15158.3803 129.7807
15171.6757 129.8092
15175.7168 129.8179
15193.0840 129.8554
15210.4823 129.8931
15224.5399 129.9236
15227.9118 129.9310
15245.3721 129.9691
15262.8636 130.0074
15277.6419 130.0398
15280.3865 130.0458
15297.9403 130.0845
15315.5255 130.1234
15330.9816 130.1577
15333.1421 130.1625
15350.7898 130.2018
15368.4690 130.2413
15384.5587 130.2773
15386.1798 130.2809
15403.9217 130.3208
15421.6954 130.3609
15438.3730 130.3986
15439.5007 130.4012
15457.3373 130.4417
15475.2057 130.4823
15492.4241 130.5217
15493.1060 130.5232
15511.0376 130.5643
15529.0012 130.6056
15546.7117 130.6464
15546.9968 130.6470
15565.0238 130.6887
15583.0830 130.7306
15601.1742 130.7726
15601.2355 130.7728
15619.2970 130.8149
15637.4520 130.8573
15655.6392 130.9000
15655.9952 130.9008
15673.8582 130.9428
15692.1095 130.9859
15710.3931 131.0291
15710.9902 131.0305
15728.7086 131.0726
15747.0565 131.1162
15765.4368 131.1600
15766.2203 131.1619
15783.8491 131.2041
15802.2940 131.2483
15820.7714 131.2927
15821.6850 131.2949
15839.2809 131.3373
15857.8231 131.3821
15876.3979 131.4271
15877.3837 131.4295
15895.0050 131.4723
15913.6448 131.5177
15932.3174 131.5633
15933.3161 131.5658
15951.0223 131.6091
15969.7602 131.6551
15988.5309 131.7012
15989.4816 131.7036
16007.3340 131.7476
16026.1702 131.7942
16045.0393 131.8409
16045.8797 131.8430
16063.9410 131.8879
16082.8758 131.9350
16101.8438 131.9823
16102.5099 131.9840
16120.8444 132.0298
16139.8782 132.0776
16158.9452 132.1255
16159.3716 132.1265
16178.0450 132.1736
16197.1782 132.2219
16216.3446 132.2703
16216.4642 132.2707
16235.5440 132.3190
16254.7768 132.3679
16273.7872 132.4163
16274.0430 132.4169
16293.3422 132.4662
16312.6750 132.5156
16331.3400 132.5635
16332.0413 132.5653
16351.4407 132.6151
16370.8737 132.6651
16389.1219 132.7122
16390.3404 132.7153
16409.8403 132.7657
16429.3740 132.8163
16447.1323 132.8624
16448.9413 132.8671
16468.5421 132.9180
16488.1767 132.9692
16505.3705 133.0140
16507.8450 133.0205
16527.5469 133.0720
16547.2827 133.1238
16563.8360 133.1672
16567.0524 133.1757
16586.8557 133.2278
16606.6931 133.2800
16622.5280 133.3218
16626.5644 133.3325
16646.4695 133.3852
16666.4087 133.4380
16681.4458 133.4779
16686.3819 133.4911
16706.3890 133.5443
16726.4303 133.5977
16740.5887 133.6355
16746.5058 133.6513
16766.6152 133.7051
16786.7590 133.7590
16799.9560 133.7944
16806.9370 133.8132
16827.1491 133.8675
16847.3956 133.9221
16859.5470 133.9548
16867.6764 133.9768
16887.9913 134.0317
16908.3409 134.0868
16919.3608 134.1166
16928.7247 134.1420
16949.1429 134.1975
16969.5958 134.2531
16979.3968 134.2798
16990.0830 134.3090
17010.6047 134.3650
17031.1611 134.4212
17039.6541 134.4444
17051.7520 134.4775
17072.3774 134.5341
17093.0377 134.5908
17100.1320 134.6104
17113.7325 134.6478
17134.4620 134.7049
17155.2264 134.7622
17160.8295 134.7777
17176.0254 134.8197
17196.8592 134.8773
17217.7280 134.9352
17221.7460 134.9463
17238.6314 134.9932
17259.5698 135.0514
17280.5432 135.1098
17282.8805 135.1163
17301.5514 135.1684
17322.5946 135.2271
17343.6730 135.2861
17344.2322 135.2876
17364.7861 135.3452
17385.9344 135.4045
17405.8000 135.4602
17407.1179 135.4640
17428.3362 135.5236
17449.5899 135.5834
17467.5831 135.6342
17470.8788 135.6435
17492.2026 135.7037
17513.5618 135.7640
17529.5807 135.8094
17534.9563 135.8246
17556.3859 135.8853
17577.8510 135.9463
17591.7919 135.9859
17599.3513 136.0074
17620.8869 136.0686
17642.4580 136.1301
17654.2157 136.1636
17664.0645 136.1917
17685.7063 136.2535
17707.3837 136.3155
17716.8513 136.3426
17729.0965 136.3777
17750.8448 136.4400
17772.6287 136.5025
17779.6976 136.5228
17794.4480 136.5652
17816.3030 136.6281
17838.1937 136.6911
17842.7537 136.7043
17860.1198 136.7544
17882.0816 136.8178
17904.0793 136.8813
17906.0186 136.8869
17926.1124 136.9451
17948.1814 137.0090
17969.4914 137.0708
17970.2863 137.0731
17992.4266 137.1374
18014.6029 137.2019
18033.1706 137.2559
18036.8152 137.2665
18059.0630 137.3313
18081.3469 137.3963
18097.0558 137.4421
18103.6667 137.4614
18126.0222 137.5267
18148.4139 137.5922
18161.1458 137.6295
18170.8415 137.6579
18193.3050 137.7237
18215.8046 137.7897
18225.4398 137.8180
18238.3402 137.8559
18260.9119 137.9223
18283.5197 137.9888
18289.9367 138.0077
18306.1635 138.0555
18328.8435 138.1224
18351.5598 138.1895
18354.6355 138.1985
18374.3120 138.2567
18397.1006 138.3241
18419.5352 138.3905
18419.9255 138.3916
18442.7864 138.4594
18465.6837 138.5273
18484.6343 138.5835
18488.6174 138.5953
18511.5871 138.6636
18534.5934 138.7320
18549.9322 138.7776
18557.6361 138.8006
18580.7149 138.8693
18603.8304 138.9382
18615.4280 138.9728
18626.9822 139.0073
18650.1704 139.0766
18673.3953 139.1460
18681.1208 139.1691
18696.6565 139.2156
18719.9542 139.2854
18743.2886 139.3553
18747.0093 139.3665
18766.6594 139.4254
18790.0668 139.4957
18813.0927 139.5648
18813.5110 139.5661
18836.9916 139.6367
18860.5089 139.7075
18879.3692 139.7643
18884.0630 139.7784
18907.6536 139.8495
18931.2810 139.9208
18945.8385 139.9647
18954.9452 139.9922
18978.6461 140.0638
19002.3838 140.1356
19012.4996 140.1662
19026.1583 140.2075
19049.9695 140.2796
19073.8178 140.3519
19079.3515 140.3686
19097.7027 140.4243
19121.6246 140.4969
19145.5836 140.5696
19146.3930 140.5721
19169.5792 140.6425
19193.6118 140.7156
19213.6226 140.7765
19217.6816 140.7889
19241.7881 140.8623
19265.9318 140.9359
19281.0396 140.9819
19290.1125 141.0096
19314.3301 141.0835
19338.5850 141.1576
19348.6432 141.1883
19362.8768 141.2318
19387.2057 141.3062
19411.5720 141.3807
19416.4325 141.3956
19435.9751 141.4554
19460.4155 141.5303
19484.4062 141.6038
19484.8933 141.6053
19509.4080 141.6805
19533.9600 141.7559
19552.5625 141.8130
19558.5494 141.8314
19583.1758 141.9071
19607.8397 141.9829
19620.9012 142.0231
19632.5409 142.0589
19657.2792 142.1351
19682.0552 142.2114
19689.4214 142.2341
19706.8682 142.2879
19731.7187 142.3645
19756.6068 142.4413
19758.1219 142.4460
19781.5320 142.5182
19806.4948 142.5954
19827.0010 142.6587
19831.4951 142.6726
19856.5327 142.7501
19881.6080 142.8276
19896.0580 142.8724
19906.7207 142.9054
19931.8708 142.9833
19957.0587 143.0614
19965.2922 143.0869
19982.2839 143.1396
20007.5468 143.2179
20032.8474 143.2965
20034.7027 143.3022
20058.1853 143.3752
20083.5611 143.4540
20104.2873 143.5184
20108.9745 143.5330
20134.4254 143.6122
20159.9142 143.6915
20174.0457 143.7355
20185.4406 143.7709
20211.0047 143.8506
20236.6066 143.9303
20243.9772 143.9533
20262.2462 144.0103
20287.9235 144.0904
20313.6388 144.1706
20314.0806 144.1720
20339.3916 144.2510
20365.1824 144.3316
20384.3537 144.3915
20391.0111 144.4123
20416.8774 144.4931
20442.7818 144.5741
20454.7966 144.6117
20468.7240 144.6553
20494.7040 144.7366
20520.7222 144.8181
20525.4084 144.8328
20546.7780 144.8997
20572.8719 144.9815
20596.1876 145.0546
20599.0039 145.0634
20625.1736 145.1455
20651.3814 145.2277
20667.1325 145.2772
20677.6273 145.3101
20703.9111 145.3926
20730.2332 145.4753
20738.2432 145.5005
20756.5931 145.5582
20782.9911 145.6411
20809.4274 145.7243
20809.5188 145.7246
20835.9015 145.8076
20862.4140 145.8910
20880.9564 145.9494
20888.9646 145.9746
20915.5532 146.0583
20942.1801 146.1422
20952.5568 146.1749
20968.8452 146.2263
20995.5484 146.3104
21022.2900 146.3948
21024.3190 146.4012
21049.0696 146.4793
21075.8876 146.5639
21096.2404 146.6281
21102.7440 146.6487
21129.6384 146.7336
21156.5713 146.8187
21168.3212 146.8558
21183.5425 146.9039
21210.5519 146.9893
21237.5999 147.0748
21240.5607 147.0842
21264.6859 147.1605
21291.8105 147.2463
21312.9567 147.3132
21318.9736 147.3322
21346.1749 147.4183
21373.4147 147.5046
21385.5087 147.5429
21400.6930 147.5910
21428.0096 147.6775
21455.3649 147.7642
21458.2166 147.7733
21482.7584 147.8511
21510.1906 147.9380
21531.0777 148.0043
21537.6614 148.0252
21565.1704 148.1124
21592.7183 148.1999
21604.0920 148.2359
21620.3045 148.2874
21647.9294 148.3751
21675.5930 148.4630
21677.2592 148.4683
21703.2949 148.5510
21731.0356 148.6391
21750.5763 148.7012
21758.8150 148.7274
21786.6329 148.8158
21814.4896 148.9044
21824.0440 148.9347
21842.3848 148.9931
21870.3188 149.0819
21897.6615 149.1689
21898.2917 149.1709
21926.3029 149.2601
21954.3531 149.3493
21971.4256 149.4037
21982.4421 149.4388
22010.5696 149.5283
22038.7362 149.6180
22045.3379 149.6391
22066.9413 149.7079
22095.1854 149.7979
22119.3962 149.8750
22123.4683 149.8880
22151.7899 149.9783
22180.1505 150.0687
22193.5991 150.1116
22208.5499 150.1592
22236.9881 150.2499
22265.4654 150.3408
22267.9472 150.3487
22293.9813 150.4317
22322.5363 150.5228
22342.4375 150.5863
22351.1302 150.6141
22379.7630 150.7055
22408.4348 150.7970
22417.0704 150.8246
22437.1455 150.8887
22465.8952 150.9805
22491.8451 151.0634
22494.6841 151.0724
22523.5117 151.1645
22552.3785 151.2567
22566.7591 151.3027
22581.2842 151.3491
22610.2290 151.4416
22639.2130 151.5342
22641.8136 151.5425
22668.2358 151.6270
22697.2979 151.7199
22717.0054 151.7829
22726.3991 151.8130
22755.5392 151.9061
22784.7187 151.9995
22792.3352 152.0238
22813.9371 152.0929
22843.1947 152.1865
22867.8017 152.2652
22872.4916 152.2802
22901.8274 152.3741
22931.2026 152.4681
22943.4031 152.5071
22960.6169 152.5622
22990.0704 152.6565
23019.1403 152.7496
23019.5633 152.7509
23049.0951 152.8455
23078.6664 152.9401
23095.0095 152.9925
23108.2769 153.0349
23137.9265 153.1299
23167.6157 153.2250
23171.0129 153.2359
23197.3439 153.3202
23227.1115 153.4155
23247.1470 153.4797
23256.9185 153.5110
23286.7646 153.6066
23316.6503 153.7024
23323.4127 153.7240
23346.5751 153.7983
23376.5394 153.8943
23399.8081 153.9688
23406.5431 153.9904
23436.5860 154.0867
23466.6685 154.1831
23476.3324 154.2141
23496.7903 154.2796
23526.9515 154.3763
23552.9854 154.4598
23557.1523 154.4731
23587.3922 154.5701
23617.6718 154.6671
23629.7647 154.7059
23647.9908 154.7643
23678.3492 154.8617
23706.6716 154.9525
23708.7473 154.9591
23739.1845 155.0567
23769.6615 155.1544
23783.7023 155.1995
23800.1779 155.2523
23830.7338 155.3503
23860.8593 155.4469
23861.3295 155.4484
23891.9643 155.5466
23922.6389 155.6450
23938.1379 155.6947
23953.3531 155.7435
23984.1067 155.8421
24014.9001 155.9409
24015.5412 155.9430
24045.7329 156.0398
24076.6054 156.1388
24093.0644 156.1916
24107.5175 156.2380
24138.4691 156.3372
24169.4606 156.4366
24170.7104 156.4406
24200.4914 156.5362
24231.5621 156.6358
24248.4746 156.6901
24262.6724 156.7356
24293.8223 156.8355
24325.0121 156.9356
24326.3599 156.9399
24356.2413 157.0357
24387.5103 157.1360
24404.3616 157.1901
24418.8191 157.2364
24450.1674 157.3370
24481.5558 157.4377
24482.4827 157.4406
24512.9835 157.5385
24544.4512 157.6394
24560.7183 157.6915
24575.9586 157.7404
24607.5057 157.8416
24639.0718 157.9428
24639.0928 157.9429
24670.7194 158.0443
24702.3859 158.1459
24717.5379 158.1945
24734.0922 158.2476
24765.8382 158.3494
24796.1201 158.4464
24797.6243 158.4513
24829.4499 158.5533
24861.3155 158.6555
24874.8136 158.6988
24893.2209 158.7578
24925.1661 158.8602
24953.6209 158.9514
24957.1513 158.9627
24989.1761 159.0654
25021.2410 159.1682
25032.5385 159.2044
25053.3456 159.2711
25085.4902 159.3741
25111.5676 159.4577
25117.6748 159.4773
25149.8990 159.5806
25182.1634 159.6840
25190.7060 159.7114
25214.4675 159.7875
25246.8116 159.8911
25269.9534 159.9653
25279.1958 159.9949
25311.6196 160.0988
25344.0837 160.2028
25349.3094 160.2195
25376.5875 160.3069
25409.1313 160.4112
25428.7718 160.4741
25441.7151 160.5156
25474.3388 160.6200
25507.0027 160.7247
25508.3421 160.7289
25539.7063 160.8294
25572.4501 160.9342
25588.0161 160.9841
25605.2338 161.0392
25638.0574 161.1443
25667.7967 161.2395
25670.9213 161.2495
25703.8249 161.3548
25736.7687 161.4603
25747.6799 161.4952
25769.7525 161.5658
25802.7763 161.6715
25827.6671 161.7512
25835.8402 161.7773
25868.9440 161.8833
25902.0881 161.9893
25907.7568 162.0074
25935.2720 162.0955
25968.4961 162.2017
25987.9473 162.2639
26001.7602 162.3081
26035.0644 162.4146
26068.2403 162.5207
26068.4088 162.5213
26101.7930 162.6280
26135.2175 162.7349
26148.6310 162.7777
26168.6820 162.8418
26202.1867 162.9489
26229.1225 163.0350
26235.7315 163.0561
26269.3162 163.1635
26302.9413 163.2709
26309.7119 163.2925
26336.6063 163.3785
26370.3115 163.4861
26390.3986 163.5503
26404.0569 163.5939
26437.8423 163.7018
26471.1837 163.8083
26471.6680 163.8098
26505.5336 163.9180
26539.4395 164.0262
26552.0627 164.0665
26573.3855 164.1346
26607.3717 164.2430
26633.0383 164.3249
26641.3982 164.3516
26675.4646 164.4603
26709.5714 164.5691
26714.1087 164.5836
26743.7181 164.6781
26777.9052 164.7871
26795.2718 164.8425
26812.1324 164.8963
26846.3998 165.0055
26876.5294 165.1016
26880.7076 165.1149
26915.0552 165.2244
26949.4433 165.3340
26957.8781 165.3609
26983.8715 165.4437
27018.3399 165.5536
27039.3186 165.6204
27052.8486 165.6635
27087.3973 165.7735
27120.8513 165.8801
27121.9866 165.8837
27156.6157 165.9940
27191.2853 166.1044
27202.4720 166.1400
27225.9951 166.2149
27260.7451 166.3255
27284.1831 166.4001
27295.5354 166.4362
27330.3658 166.5470
27365.2367 166.6580
27365.9840 166.6603
27400.1476 166.7690
27435.0989 166.8802
27447.8706 166.9208
27470.0904 166.9914
27505.1222 167.1028
27529.8457 167.1814
27540.1943 167.2143
27575.3066 167.3259
27610.4594 167.4376
27611.9082 167.4422
27645.6521 167.5494
27680.8854 167.6613
27694.0545 167.7032
27716.1589 167.7734
27751.4726 167.8855
27776.2872 167.9643
27786.8268 167.9977
27822.2211 168.1101
27857.6559 168.2226
27858.6052 168.2256
27893.1308 168.3351
27928.6462 168.4478
27941.0048 168.4870
27964.2018 168.5606
27999.7977 168.6735
28023.4887 168.7486
28035.4341 168.7865
28071.1106 168.8996
28106.0561 169.0103
28106.8277 169.0128
28142.5848 169.1261
28178.3825 169.2395
28188.7032 169.2722
28214.2204 169.3531
28250.0988 169.4667
28271.4321 169.5343
28286.0175 169.5804
28321.9764 169.6943
28354.2425 169.7964
28357.9759 169.8082
28394.0155 169.9223
28430.0958 170.0365
28437.1315 170.0587
28466.2161 170.1507
28502.3770 170.2651
28520.0995 170.3211
28538.5782 170.3796
28574.8198 170.4942
28603.1469 170.5837
28611.1019 170.6088
28647.4242 170.7236
28683.7871 170.8385
28686.2723 170.8464
28720.1901 170.9535
28756.6337 171.0686
28769.4734 171.1092
28793.1176 171.1838
28829.6420 171.2991
28852.7520 171.3721
28866.2068 171.4145
28902.8119 171.5300
28936.1075 171.6351
28939.4577 171.6457
28976.1436 171.7614
29012.8701 171.8772
29019.5371 171.8982
29049.6369 171.9931
29086.4443 172.1091
29103.0412 172.1614
29123.2920 172.2253
29160.1801 172.3415
29186.6203 172.4248
29197.1088 172.4578
29234.0778 172.5742
29270.2737 172.6882
29271.0874 172.6908
29308.1372 172.8074
29345.2278 172.9241
29353.9980 172.9517
29382.3585 173.0410
29419.5299 173.1579
29437.7952 173.2154
29456.7417 173.2750
29493.9939 173.3921
29521.6649 173.4791
29531.2868 173.5093
29568.6199 173.6267
29605.6065 173.7429
29605.9937 173.7441
29643.4077 173.8616
29680.8625 173.9793
29689.6166 174.0068
29718.3576 174.0970
29755.8932 174.2148
29773.6973 174.2707
29793.4694 174.3328
29831.0860 174.4508
29857.8481 174.5347
29868.7432 174.5689
29906.4407 174.6872
29942.0683 174.7989
29944.1790 174.8055
29981.9575 174.9239
30019.7768 175.0424
30026.3554 175.0630
30057.6363 175.1611
30095.5366 175.2798
30110.7102 175.3273
30133.4772 175.3986
30171.4585 175.5175
30195.1327 175.5916
30209.4802 175.6365
30247.5424 175.7556
30279.6224 175.8560
30285.6453 175.8748
30323.7885 175.9941
30361.9725 176.1135
30364.1780 176.1204
30400.1967 176.2330
30438.4617 176.3526
30448.7977 176.3849
30476.7671 176.4723
30515.1131 176.5921
30533.4828 176.6495
30553.4996 176.7120
30591.9266 176.8319
30618.2328 176.9141
30630.3942 176.9520
30668.9023 177.0722
30703.0472 177.1787
30707.4511 177.1924
30746.0401 177.3128
30784.6700 177.4333
30787.9242 177.4434
30823.3402 177.5538
30862.0511 177.6744
30872.8630 177.7081
30900.8024 177.7952
30939.5943 177.9160
30957.8645 177.9729
30978.4267 178.0369
31017.2997 178.1580
31042.9281 178.2377
31056.2133 178.2791
31095.1673 178.4003
31128.0531 178.5026
31134.1621 178.5216
31173.1972 178.6430
31212.2730 178.7645
31213.2389 178.7675
31251.3892 178.8860
31290.5461 179.0077
31298.4831 179.0324
31329.7433 179.1295
31368.9813 179.2513
31383.7873 179.2973
31408.2597 179.3733
31447.5787 179.4953
31469.1508 179.5623
31486.9383 179.6174
31526.3383 179.7397
31554.5731 179.8272
31565.7790 179.8620
31605.2601 179.9844
31640.0538 180.0922
31644.7819 180.1069
31684.3441 180.2295
31723.9470 180.3522
31725.5916 180.3573
31763.5902 180.4749
31803.2742 180.5978
31811.1852 180.6223
31842.9985 180.7208
31882.7635 180.8438
31896.8355 180.8873
31922.5689 180.9669
31962.4149 181.0902
31982.5421 181.1524
32002.3015 181.2135
32042.2285 181.3369
32068.3043 181.4175
32082.1962 181.4604
32122.2043 181.5840
32154.1217 181.6825
32162.2530 181.7076
32202.3421 181.8314
32239.9937 181.9476
32242.4720 181.9553
32282.6421 182.0792
32322.8530 182.2032
32325.9189 182.2127
32363.1041 182.3273
32403.3960 182.4516
32411.8971 182.4778
32443.7282 182.5758
32484.1011 182.7002
32497.9283 182.7428
32524.5144 182.8247
32564.9683 182.9493
32584.0123 183.0079
32605.4627 183.0739
32645.9976 183.1986
32670.1484 183.2729
32686.5730 183.3235
32727.1888 183.4484
32756.3363 183.5380
32767.8453 183.5734
32808.5421 183.6984
32842.5753 183.8030
32849.2796 183.8236
32890.0574 183.9489
32928.8650 184.0680
32930.8759 184.0742
32971.7346 184.1996
33012.6341 184.3251
33015.2042 184.3330
33053.5738 184.4507
33094.5543 184.5764
33101.5925 184.5980
33135.5750 184.7022
33176.6364 184.8281
33188.0301 184.8630
33217.7380 184.9540
33258.8803 185.0800
33274.5166 185.1279
33300.0630 185.2061
33341.2862 185.3323
33361.0515 185.3928
33382.5499 185.4586
33423.8540 185.5850
33447.6342 185.6577
33465.1986 185.7114
33506.5835 185.8380
33534.2645 185.9226
33548.0091 185.9646
33589.4749 186.0913
33620.9417 186.1874
33630.9814 186.2181
33672.5282 186.3449
33707.6654 186.4522
33714.1156 186.4719
33755.7432 186.5989
33794.4353 186.7170
33797.4115 186.7260
33839.1199 186.8532
33880.8691 186.9805
33881.2507 186.9817
33922.6585 187.1079
33964.4885 187.2353
33968.1105 187.2464
34006.3587 187.3629
34048.2696 187.4905
34055.0151 187.5110
34090.2208 187.6182
34132.2125 187.7459
34141.9641 187.7756
34174.2445 187.8738
34216.3171 188.0017
34228.9572 188.0402
34258.4300 188.1298
34300.5834 188.2579
34315.9940 188.3047
34342.7772 188.3861
34385.0115 188.5143
34403.0739 188.5692
34427.2862 188.6427
34469.6013 188.7711
34490.1967 188.8336
34511.9569 188.8996
34554.3529 189.0282
34577.3620 189.0980
34596.7893 189.1569
34639.2662 189.2856
34664.5694 189.3623
34681.7836 189.4144
34724.3413 189.5433
34751.8185 189.6266
34766.9395 189.6723
34809.5781 189.8014
34839.1089 189.8908
34852.2573 189.9306
34894.9768 190.0598
34926.4403 190.1549
34937.7369 190.1891
34980.5372 190.3185
35013.8124 190.4190
35023.3782 190.4480
35066.2595 190.5775
35101.2247 190.6831
35109.1814 190.7071
35152.1436 190.8368
35188.6770 190.9471
35195.1465 190.9666
35238.1897 191.0965
35276.1689 191.2110
35281.2735 191.2264
35324.3976 191.3564
35363.7001 191.4749
35367.5624 191.4865
35410.7675 191.6167
35451.2703 191.7387
35454.0133 191.7470
35497.2993 191.8773
35538.8791 192.0024
35540.6261 192.0077
35583.9932 192.1382
35626.5262 192.2661
35627.4010 192.2688
35670.8491 192.3994
35714.2114 192.5297
35714.3380 192.5301
35757.8671 192.6609
35801.4371 192.7918
35801.9341 192.7933
35845.0473 192.9228
35888.6984 193.0538
35889.6942 193.0568
35932.3897 193.1849
35976.1218 193.3161
35977.4916 193.3202
36019.8943 193.4473
36063.7076 193.5787
36065.3258 193.5835
36107.5612 193.7101
36151.4557 193.8416
36153.1966 193.8468
36195.3905 193.9732
36239.3662 194.1048
36241.1039 194.1100
36283.3823 194.2365
36327.4392 194.3683
36329.0472 194.3731
36371.5365 194.5002
36415.6747 194.6321
36417.0263 194.6362
36459.8533 194.7642
36504.0729 194.8963
36505.0410 194.8992
36548.3328 195.0285
36592.6337 195.1607
36593.0910 195.1621
36636.9750 195.2930
36681.1761 195.4249
36681.3573 195.4255
36725.7800 195.5579
36769.2958 195.6877
36770.2437 195.6905
36814.7478 195.8231
36857.4501 195.9503
36859.2930 195.9558
36903.8787 196.0886
36945.6388 196.2129
36948.5054 196.2215
36993.1727 196.3544
37033.8615 196.4755
37037.8809 196.4874
37082.6297 196.6205
37122.1182 196.7379
37127.4196 196.7537
37172.2501 196.8869
37210.4085 197.0003
37217.1216 197.0202
37262.0337 197.1536
37298.7323 197.2626
37306.9869 197.2871
37351.9808 197.4206
37387.0893 197.5248
37397.0157 197.5542
37442.0913 197.6879
37475.4792 197.7869
37487.2080 197.8217
37532.3655 197.9555
37563.9019 198.0489
37577.5639 198.0894
37622.8032 198.2234
37652.3572 198.3109
37668.0835 198.3575
37713.4046 198.4916
37740.8447 198.5728
37758.7668 198.6258
37804.1698 198.7601
37829.3644 198.8346
37849.6139 198.8945
37895.0989 199.0289
37917.9158 199.0963
37940.6248 199.1634
37986.1918 199.2980
38006.4989 199.3579
38031.7997 199.4326
38077.4487 199.5673
38095.1133 199.6195
38123.1386 199.7021
38168.8696 199.8370
38183.7589 199.8809
38214.6415 199.9720
38260.4545 200.1070
38272.4354 200.1423
38306.3085 200.2421
38352.2036 200.3772
38361.1426 200.4036
38398.1396 200.5125
38444.1168 200.6478
38449.8803 200.6647
38490.1349 200.7832
38536.1943 200.9186
38538.6481 200.9259
38582.2944 201.0542
38627.4457 201.1869
38628.4359 201.1898
38674.6182 201.3254
38716.2721 201.4478
38720.8419 201.4612
38767.1063 201.5970
38805.1280 201.7086
38813.4121 201.7329
38859.7588 201.8689
38894.0132 201.9693
38906.1467 202.0049
38952.5756 202.1410
38982.9273 202.2300
38999.0457 202.2772
39045.5568 202.4135
39071.8702 202.4905
39092.1090 202.5498
39138.7024 202.6862
39160.8416 202.7510
39185.3368 202.8227
39232.0124 202.9592
39249.8413 203.0113
39278.7291 203.0958
39325.4869 203.2325
39338.8691 203.2716
39372.2858 203.3692
39419.1259 203.5061
39427.9246 203.5318
39466.0070 203.6430
39512.9294 203.7799
39517.0078 203.7918
39559.8926 203.9170
39606.1179 204.0518
39606.8973 204.0541
39653.9428 204.1913
39695.2539 204.3117
39701.0297 204.3285
39748.1574 204.4658
39784.4166 204.5714
39795.3265 204.6032
39842.5366 204.7407
39873.6059 204.8311
39889.7879 204.8782
39937.0802 205.0158
39962.8216 205.0907
39984.4137 205.1535
40031.7883 205.2912
40052.0633 205.3502
40079.2040 205.4290
40126.6609 205.5669
40141.3308 205.6095
40174.1588 205.7049
40221.6980 205.8429
40230.6240 205.8688
40269.2781 205.9810
40316.8995 206.1191
40319.9425 206.1279
40364.5618 206.2573
40409.2851 206.3870
40412.2655 206.3956
40460.0099 206.5340
40498.6517 206.6459
40507.7958 206.6724
40555.6225 206.8109
40588.0429 206.9048
40603.4904 206.9495
40651.3994 207.0881
40677.4584 207.1635
40699.3495 207.2268
40747.3407 207.3656
40766.8980 207.4221
40795.3729 207.5044
40843.4463 207.6433
40856.3615 207.6807
40891.5606 207.7823
40939.7162 207.9214
40945.8486 207.9391
40987.9126 208.0605
41035.3589 208.1974
41036.1503 208.1996
41084.4288 208.3389
41124.8904 208.4555
41132.7486 208.4782
41181.1093 208.6176
41214.4447 208.7136
41229.5111 208.7570
41277.9538 208.8965
41304.0217 208.9716
41326.4377 209.0361
41374.9626 209.1757
41393.6211 209.2294
41423.5284 209.3155
41472.1354 209.4552
41483.2426 209.4872
41520.7832 209.5951
41569.4723 209.7350
41572.8862 209.7448
41618.2021 209.8749
41662.5501 210.0023
41666.9731 210.0150
41715.7850 210.1551
41752.2344 210.2597
41764.6380 210.2953
41813.5319 210.4355
41841.9401 210.5169
41862.4669 210.5758
41911.4428 210.7162
41931.6668 210.7741
41960.4598 210.8566
42009.5178 210.9971
42021.4145 211.0311
42058.6166 211.1376
42107.7567 211.2783
42111.1829 211.2881
42156.9375 211.4189
42200.9701 211.5449
42206.1596 211.5597
42255.4224 211.7005
42290.7766 211.8015
42304.7264 211.8414
42354.0712 211.9823
42380.6032 212.0581
42403.4571 212.1233
42452.8841 212.2644
42470.4498 212.3145
42502.3519 212.4056
42551.8609 212.5468
42560.3161 212.5709
42601.4107 212.6880
42650.2018 212.8271
42651.0018 212.8294
42700.6336 212.9707
42740.1042 213.0831
42750.3066 213.1122
42800.0204 213.2537
42830.0259 213.3391
42849.7754 213.3953
42899.5714 213.5369
42919.9667 213.5949
42949.4083 213.6786
42999.2864 213.8204
43009.9264 213.8507
43049.2053 213.9623
43099.1655 214.1042
43099.9049 214.1062
43149.1665 214.2461
43189.8991 214.3617
43199.2087 214.3881
43249.2918 214.5302
43279.9116 214.6171
43299.4160 214.6724
43349.5813 214.8146
43369.9424 214.8723
43399.7876 214.9568
43450.0350 215.0992
43459.9913 215.1274
43500.3234 215.2416
43550.0582 215.3824
43550.6530 215.3840
43601.0235 215.5266
43640.1398 215.6372
43651.4352 215.6691
43701.8879 215.8118
43730.2392 215.8919
43752.3818 215.9545
43802.9168 216.0973
43820.3562 216.1465
43853.4928 216.2401
43904.1101 216.3830
43910.4908 216.4010
43954.7683 216.5260
44000.6413 216.6554
44005.4679 216.6690
44056.2084 216.8120
44090.8071 216.9096
44106.9902 216.9552
44157.8131 217.0984
44180.9900 217.1637
44208.6771 217.2417
44259.5824 217.3850
44271.1900 217.4177
44310.5287 217.5284
44361.4069 217.6715
44361.5165 217.6718
44412.5452 217.8153
44451.6370 217.9252
44463.6153 217.9589
44514.7264 218.1025
44541.8838 218.1788
44565.8789 218.2462
44617.0727 218.3900
44632.1473 218.4323
44668.3076 218.5338
44719.5839 218.6777
44722.4273 218.6856
44770.9013 218.8216
44812.7209 218.9389
44822.2602 218.9656
44873.6602 219.1097
44903.0299 219.1920
44925.1016 219.2538
44976.5844 219.3980
44993.3552 219.4449
45028.1084 219.5422
45079.6739 219.6865
45083.6966 219.6978
45131.2805 219.8309
45174.0515 219.9505
45182.9288 219.9753
45234.6182 220.1198
45264.4211 220.2031
45286.3491 220.2643
45338.1215 220.4090
45354.8067 220.4555
45389.9352 220.5536
45441.7905 220.6984
45445.2081 220.7079
45493.6871 220.8431
45535.6223 220.9601
45545.6253 220.9880
45597.6049 221.1329
45626.0512 221.2122
45649.6260 221.2779
45701.6887 221.4229
45716.4958 221.4641
45753.7928 221.5680
45805.9387 221.7132
45806.9560 221.7160
45858.1259 221.8584
45897.4278 221.9677
45910.3548 222.0037
45962.6253 222.1490
45987.9148 222.2193
46014.9374 222.2944
46067.2912 222.4398
46078.4173 222.4707
46119.6865 222.5854
46168.9343 222.7221
46172.1238 222.7309
46224.6024 222.8766
46259.4632 222.9733
46277.1230 223.0223
46329.6852 223.1680
46350.0074 223.2244
46382.2892 223.3139
46434.9350 223.4597
46440.5669 223.4753
46487.6225 223.6057
46531.1388 223.7262
46540.3519 223.7517
46593.1230 223.8978
46621.7243 223.9769
46645.9361 224.0439
46698.7910 224.1901
46712.3249 224.2275
46751.6878 224.3363
46802.9401 224.4780
46804.6266 224.4826
46857.6071 224.6290
46893.5663 224.7283
46910.6297 224.7754
46963.6943 224.9219
46984.2075 224.9785
47016.8008 225.0685
47069.9494 225.2151
47074.8637 225.2286
47123.1398 225.3617
47165.5317 225.4786
47176.3725 225.5085
47229.6471 225.6553
47256.2130 225.7284
47282.9638 225.8021
47336.3226 225.9490
47346.9092 225.9782
47389.7235 226.0960
47437.6186 226.2278
47443.1666 226.2430
47496.6517 226.3901
47528.3396 226.4773
47550.1791 226.5373
47603.7486 226.6845
47619.0753 226.7266
47657.3603 226.8318
47709.8253 226.9759
47711.0144 226.9791
47764.7104 227.1265
47800.5853 227.2250
47818.4489 227.2740
47872.2296 227.4215
47891.3600 227.4740
47926.0525 227.5691
47979.9179 227.7167
47982.1492 227.7229
48033.8254 227.8644
48072.9484 227.9716
48087.7754 228.0122
48141.7677 228.1600
48163.7615 228.2202
48195.8023 228.3079
48249.8794 228.4559
48254.5889 228.4687
48303.9987 228.6039
48345.4269 228.7171
48358.1606 228.7519
48412.3649 228.9001
48436.2778 228.9654
48466.6116 229.0483
48520.9008 229.1965
48527.1430 229.2135
48575.2324 229.3448
48618.0189 229.4616
48629.6066 229.4932
48684.0232 229.6416
48708.9071 229.7095
48738.4824 229.7901
48792.9842 229.9387
48799.8094 229.9573
48847.5284 230.0873
48890.7223 230.2049
48902.1153 230.2359
48956.7446 230.3847
48981.6472 230.4525
49011.4166 230.5335
49066.1314 230.6823
49072.5861 230.6999
49120.8885 230.8312
49163.5352 230.9472
49175.6885 230.9802
49230.5310 231.1293
49254.4963 231.1944
49285.4162 231.2783
49340.3441 231.4275
49345.4711 231.4414
49395.3146 231.5767
49436.4555 231.6884
49450.3280 231.7260
49505.3839 231.8753
49527.4521 231.9352
49560.4827 232.0247
49615.6243 232.1742
49618.4622 232.1819
49670.8084 232.3237
49709.4811 232.4285
49726.0355 232.4733
49781.3053 232.6229
49800.5126 232.6749
49836.6178 232.7726
49891.5574 232.9213
49891.9734 232.9224
49947.3715 233.0722
49982.6098 233.1675
50002.8126 233.2221
50058.2965 233.3720
50073.6756 233.4136
50113.8233 233.5220
50164.7533 233.6595
50169.3930 233.6721
50225.0055 233.8222
50255.8396 233.9054
50280.6609 233.9724
50336.3593 234.1226
50346.9391 234.1511
50392.1005 234.2729
50438.0487 234.3967
50447.8847 234.4233
50503.7118 234.5737
50529.1682 234.6422
50559.5818 234.7242
50615.4950 234.8747
50620.3007 234.8876
50671.4508 235.0253
50711.4414 235.1329
50727.4499 235.1759
50783.4919 235.3267
50802.5935 235.3780
50839.5768 235.4774
50893.7578 235.6230
50895.7049 235.6283
50951.8758 235.7792
50984.9292 235.8679
51008.0899 235.9301
51064.3470 236.0811
51076.1132 236.1127
51120.6471 236.2322
51167.3070 236.3574
51176.9904 236.3833
51233.3766 236.5345
51258.5098 236.6019
51289.8060 236.6858
51346.2786 236.8371
51349.7251 236.8463
51402.7940 236.9884
51440.9475 237.0906
51459.3528 237.1399
51515.9546 237.2914
51532.1811 237.3348
51572.5994 237.4429
51623.4253 237.5788
51629.2876 237.5945
51686.0188 237.7462
51714.6770 237.8228
51742.7931 237.8979
51799.6108 238.0497
51805.9408 238.0666
51856.4714 238.2015
51897.2120 238.3103
51913.3753 238.3534
51970.3224 238.5054
51988.4934 238.5539
52027.3127 238.6574
52079.7854 238.7973
52084.3463 238.8095
52141.4229 238.9616
52171.0839 239.0406
52198.5428 239.1138
52255.7061 239.2661
52262.3943 239.2839
52312.9124 239.4184
52353.7117 239.5270
52370.1621 239.5707
52427.4550 239.7232
52445.0389 239.7699
52484.7912 239.8756
52536.3760 240.0128
52542.1707 240.0282
52599.5934 240.1808
52627.7195 240.2555
52657.0594 240.3335
52714.5688 240.4862
52719.0746 240.4981
52772.1213 240.6389
52810.4355 240.7406
52829.7173 240.7918
52887.3566 240.9447
52901.8066 240.9830
52945.0391 241.0976
52993.1862 241.2252
53002.7651 241.2506
53060.5343 241.4037
53084.5728 241.4674
53118.3469 241.5568
53175.9706 241.7094
53176.2029 241.7100
53234.1021 241.8633
53267.3726 241.9513
53292.0448 242.0166
53350.0309 242.1699
53358.7856 242.1931
53408.0602 242.3233
53450.2051 242.4347
53466.1331 242.4768
53524.2493 242.6303
53541.6330 242.6762
53582.4089 242.7839
53633.0696 242.9176
53640.6120 242.9376
53698.8584 243.0913
53724.5121 243.1589
53757.1483 243.2450
53815.4817 243.3988
53815.9653 243.4001
53873.8583 243.5527
53907.4222 243.6411
53932.2786 243.7066
53990.7423 243.8606
53998.8896 243.8821
54049.2493 244.0147
54090.3626 244.1229
54107.8000 244.1688
54166.3941 244.3229
54181.8439 244.3636
54225.0316 244.4771
54273.3327 244.6041
54283.7128 244.6314
54342.4373 244.7858
54364.8275 244.8446
54401.2054 244.9401
54456.3318 245.0849
54460.0172 245.0946
54518.8722 245.2491
54547.8399 245.3251
54577.7709 245.4036
54636.7133 245.5583
54639.3584 245.5652
54695.6990 245.7129
54730.8804 245.8052
54754.7284 245.8677
54813.8015 246.0224
54822.4118 246.0450
54872.9179 246.1773
54913.9483 246.2847
54932.0781 246.3322
54991.2819 246.4871
55005.4924 246.5243
55050.5292 246.6422
55097.0430 246.7638
55109.8203 246.7972
55169.1549 246.9523
55188.5996 247.0032
55228.5331 247.1075
55280.1639 247.2424
55287.9551 247.2628
55347.4206 247.4181
55371.7327 247.4815
55406.9298 247.5734
55463.3105 247.7205
55466.4829 247.7288
55526.0794 247.8843
55554.8913 247.9594
55585.7197 248.0398
55645.4038 248.1954
55646.4819 248.1982
55705.1315 248.3510
55738.0748 248.4368
55764.9029 248.5067
55824.7182 248.6624
55829.6770 248.6753
55884.5771 248.8182
55921.2825 248.9137
55944.4798 248.9741
56004.4263 249.1300
56012.8962 249.1520
56064.4165 249.2860
56104.5140 249.3902
56124.4506 249.4420
56184.5285 249.5981
56196.1390 249.6282
56244.6501 249.7542
56287.7687 249.8662
56304.8156 249.9104
56365.0249 250.0667
56379.4048 250.1040
56425.2780 250.2230
56471.0462 250.3416
56485.5751 250.3793
56545.9159 250.5357
56562.6931 250.5792
56606.3006 250.6922
56654.3459 250.8167
56666.7293 250.8487
56727.2018 251.0053
56746.0034 251.0540
56787.7181 251.1620
56837.6673 251.2912
56848.2785 251.3186
56908.8828 251.4754
56929.3352 251.5283
56969.5309 251.6322
57021.0099 251.7653
57030.2232 251.7891
57090.9592 251.9460
57112.6881 252.0021
57151.7393 252.1030
57204.3733 252.2388
57212.5634 252.2600
57273.4315 252.4171
57296.0617 252.4754
57334.3435 252.5742
57387.7571 252.7119
57395.2997 252.7314
57456.2997 252.8886
57479.4553 252.9483
57517.3439 253.0459
57571.1607 253.1846
57578.4322 253.2033
57639.5644 253.3607
57662.8687 253.4207
57700.7407 253.5182
57754.5838 253.6567
57761.9613 253.6757
57823.2258 253.8333
57846.3014 253.8926
57884.5344 253.9909
57938.0259 254.1284
57945.8873 254.1486
58007.2842 254.3064
58029.7529 254.3641
58068.7252 254.4642
58121.4866 254.5996
58130.2106 254.6220
58191.7399 254.7799
58213.2229 254.8351
58253.3135 254.9379
58304.9655 255.0704
58314.9314 255.0959
58376.5934 255.2540
58396.7110 255.3056
58438.2996 255.4121
58488.4622 255.5407
58500.0502 255.5703
58561.8449 255.7286
58580.2167 255.7756
58623.6838 255.8869
58671.9763 256.0105
58685.5672 256.0452
58747.4948 256.2036
58763.7398 256.2452
58809.4666 256.3621
58855.5076 256.4798
58871.4829 256.5206
58933.5434 256.6792
58947.2797 256.7143
58995.6482 256.8378
59039.0555 256.9487
59057.7975 256.9965
59119.9911 257.1552
59130.8363 257.1829
59182.2291 257.3140
59222.6198 257.4171
59244.5115 257.4729
59306.8384 257.6318
59314.4091 257.6511
59369.2095 257.7907
59406.2002 257.8850
59431.6252 257.9498
59494.0855 258.1088
59497.9978 258.1188
59556.5900 258.2680
59589.7962 258.3525
59619.1391 258.4271
59681.6021 258.5860
59681.7328 258.5864
59744.3708 258.7457
59773.4076 258.8195
59807.0534 258.9050
59865.2205 259.0528
59869.7807 259.0644
59932.5524 259.2238
59957.0341 259.2860
59995.3686 259.3833
60048.8538 259.5191
60058.2296 259.5429
60121.1351 259.7025
60140.6754 259.7521
60184.0852 259.8622
60232.5016 259.9850
60247.0800 260.0219
60310.1194 260.1817
60324.3311 260.2177
60373.2034 260.3415
60416.1638 260.4504
60436.3322 260.5014
60499.5057 260.6614
60508.0011 260.6829
60562.7237 260.8214
60599.8400 260.9153
60625.9866 260.9814
60689.2943 261.1415
60691.6850 261.1476
60752.6466 261.3017
60783.5299 261.3798
60816.0438 261.4619
60875.3816 261.6118
60879.4858 261.6222
60942.9725 261.7825
60967.2334 261.8438
61006.5041 261.9429
61059.0908 262.0756
61070.0805 262.1034
61133.7018 262.2638
61150.9502 262.3073
61197.3679 262.4244
61242.8131 262.5390
61261.0790 262.5850
61324.8350 262.7457
61334.6800 262.7705
61388.6358 262.9064
61426.5484 263.0018
61452.4816 263.0671
61516.3724 263.2280
61518.4226 263.2331
61580.3081 263.3888
61610.2963 263.4643
61644.2888 263.5498
61702.1762 263.6953
61708.3147 263.7107
61772.3854 263.8718
61794.0566 263.9262
61836.5012 264.0329
61885.9416 264.1571
61900.6621 264.1940
61964.8681 264.3552
61977.8292 264.3878
62029.1191 264.5165
62069.7191 264.6184
62093.4153 264.6778
62157.7567 264.8392
62161.6139 264.8489
62222.1431 265.0006
62253.5085 265.0792
62286.5748 265.1621
62345.4090 265.3095
62351.0517 265.3236
62415.5737 265.4852
62437.3097 265.5396
62480.1410 265.6469
62529.2147 265.7697
62544.7535 265.8086
62609.4114 265.9703
62621.1225 265.9996
62674.1144 266.1321
62713.0319 266.2294
62738.8628 266.2940
62803.6566 266.4559
62804.9467 266.4591
62868.4956 266.6179
62896.8604 266.6887
62933.3800 266.7799
62988.7797 266.9182
62998.3099 266.9420
63063.2851 267.1041
63080.7000 267.1476
63128.3057 267.2663
63172.6234 267.3768
63193.3718 267.4286
63258.4834 267.5909
63264.5507 267.6060
63323.6403 267.7532
63356.4780 267.8350
63388.8429 267.9157
63448.4107 268.0640
63454.0910 268.0781
63519.3846 268.2406
63540.3434 268.2928
63584.7237 268.4032
63632.2799 268.5215
63650.1085 268.5659
63715.5389 268.7285
63724.2195 268.7501
63781.0148 268.8913
63816.1596 268.9786
63846.5364 269.0541
63908.1050 269.2070
63912.1038 269.2169
63977.7168 269.3799
64000.0498 269.4353
64043.3755 269.5428
64091.9987 269.6635
64109.0799 269.7058
64174.8302 269.8689
64183.9504 269.8915
64240.6261 270.0321
64275.9027 270.1195
64306.4679 270.1952
64367.8600 270.3473
64372.3556 270.3585
64438.2889 270.5218
64459.8168 270.5751
64504.2682 270.6851
64551.7774 270.8027
64570.2935 270.8485
64636.3646 271.0120
64643.7411 271.0303
64702.4816 271.1755
64735.7048 271.2577
64768.6446 271.3391
64827.6735 271.4850
64834.8536 271.5027
64901.1085 271.6664
64919.6422 271.7122
64967.4095 271.8302
65011.6139 271.9393
65033.7566 271.9940
65100.1497 272.1578
65103.5894 272.1663
65166.5889 272.3217
65195.5640 272.3932
65233.0742 272.4857
65287.5434 272.6200
65299.6057 272.6497
65366.1833 272.8138
65379.5240 272.8467
65432.8071 272.9779
65471.5061 273.0732
65499.4771 273.1421
65563.4929 273.2997
65566.1934 273.3064
65632.9559 273.4706
65655.4785 273.5261
65699.7646 273.6350
65747.4680 273.7523
65766.6198 273.7994
65833.5212 273.9639
65839.4606 273.9785
65900.4689 274.1284
65931.4527 274.2045
65967.4631 274.2930
66023.4493 274.4305
66034.5037 274.4576
66101.5907 274.6223
66115.4468 274.6563
66168.7241 274.7871
66207.4460 274.8821
66235.9040 274.9519
66299.4495 275.1077
66303.1305 275.1167
66370.4034 275.2816
66391.4521 275.3332
66437.7229 275.4466
66483.4581 275.5587
66505.0890 275.6116
66572.5017 275.7767
66575.4676 275.7840
66639.9610 275.9419
66667.4760 276.0092
66707.4669 276.1071
66759.4886 276.2343
66775.0196 276.2723
66842.6190 276.4376
66851.5033 276.4594
66910.2650 276.6030
66943.5182 276.6843
66977.9578 276.7684
67035.5373 276.9091
67045.6975 276.9339
67113.4840 277.0994
67127.5571 277.1338
67181.3172 277.2650
67219.5784 277.3584
67249.1973 277.4307
67311.6039 277.5829
67317.1244 277.5964
67385.0984 277.7622
67403.6288 277.8073
67453.1192 277.9280
67495.6564 278.0316
67521.1871 278.0939
67587.6881 278.2559
67589.3020 278.2598
67657.4639 278.4258
67679.7182 278.4800
67725.6728 278.5918
67771.7519 278.7040
67793.9288 278.7579
67862.2320 278.9241
67863.7893 278.9279
67930.5822 279.0903
67955.8250 279.1517
67998.9796 279.2566
68047.8648 279.3754
68067.4243 279.4229
68135.9161 279.5893
68139.9074 279.5990
68204.4552 279.7558
68231.9491 279.8225
68273.0415 279.9223
68323.9947 280.0459
68341.6752 280.0888
68410.3562 280.2555
68416.0428 280.2692
68479.0845 280.4221
68508.0903 280.4925
68547.8603 280.5889
68600.1417 280.7156
68616.6835 280.7557
68685.5541 280.9225
68692.1952 280.9386
68754.4722 281.0894
68784.2485 281.1615
68823.4378 281.2564
68876.3055 281.3843
68892.4509 281.4234
68961.5117 281.5905
68968.3646 281.6071
69030.6199 281.7576
69060.4235 281.8297
69099.7758 281.9248
69152.4861 282.0522
69168.9794 282.0921
69238.2307 282.2594
69244.5509 282.2747
69307.5296 282.4268
69336.6153 282.4970
69376.8763 282.5942
69428.6834 282.7192
69446.2709 282.7617
69515.7132 282.9292
69520.7540 282.9414
69585.2033 283.0968
69612.8239 283.1634
69654.7413 283.2645
69704.8975 283.3854
69724.3272 283.4322
69793.9611 283.6000
69796.9739 283.6073
69863.6429 283.7678
69889.0492 283.8290
69933.3727 283.9357
69981.1281 284.0507
70003.1505 284.1037
70072.9765 284.2717
70073.2106 284.2723
70142.8504 284.4398
70165.2913 284.4937
70212.7724 284.6079
70257.3755 284.7151
70282.7427 284.7761
70349.4634 284.9364
70352.7612 284.9444
70422.8278 285.1127
70441.5502 285.1576
70492.9427 285.2810
70533.6397 285.3787
70563.1059 285.4495
70625.7328 285.5997
70633.3174 285.6179
70703.5773 285.7865
70717.8259 285.8207
70773.8855 285.9551
70809.9207 286.0415
70844.2421 286.1238
70902.0190 286.2622
70914.6473 286.2925
70985.1009 286.4613
70994.1186 286.4829
71055.6030 286.6301
71086.2186 286.7034
71126.1536 286.7990
71178.3221 286.9239
71196.7529 286.9680
71267.4009 287.1370
71270.4284 287.1442
71338.0974 287.3061
71362.5336 287.3645
71408.8426 287.4752
71454.6423 287.5847
71479.6366 287.6444
71546.7545 287.8048
71550.4793 287.8137
71621.3708 287.9830
71638.8659 288.0248
71692.3111 288.1524
71730.9798 288.2447
71763.3004 288.3218
71823.0971 288.4645
71834.3386 288.4913
71905.4256 288.6609
71915.2156 288.6842
71976.5616 288.8305
72007.3347 288.9039
72047.7467 289.0002
72099.4573 289.1234
72118.9809 289.1699
72190.2641 289.3397
72191.5830 289.3429
72261.5964 289.5096
72283.7074 289.5622
72332.9779 289.6795
72375.8352 289.7815
72404.4086 289.8495
72467.9664 290.0007
72475.8886 290.0196
72547.4178 290.1897
72560.0980 290.2198
72618.9962 290.3598
72652.2311 290.4388
72690.6241 290.5301
72744.3676 290.6578
72762.3014 290.7004
72834.0282 290.8707
72836.5069 290.8766
72905.8043 291.0411
72928.6453 291.0954
72977.6299 291.2116
73020.7871 291.3140
73049.5052 291.3822
73112.9323 291.5326
73121.4300 291.5528
73193.4044 291.7234
73205.0782 291.7511
73265.4285 291.8941
73297.2254 291.9695
73337.5023 292.0649
73389.3760 292.1878
73409.6258 292.2358
73481.5300 292.4060
73481.7992 292.4067
73554.0223 292.5777
73573.6827 292.6242
73626.2953 292.7487
73665.8388 292.8422
73698.6183 292.9198
73757.9983 293.0602
73770.9912 293.0909
73843.4141 293.2622
73850.1596 293.2781
73915.8869 293.4335
73942.3212 293.4959
73988.4099 293.6048
74034.4863 293.7136
74060.9830 293.7762
74126.6548 293.9313
74133.6063 293.9477
74206.2797 294.1192
74218.8237 294.1488
74279.0034 294.2908
74310.9944 294.3663
74351.7773 294.4625
74403.1686 294.5837
74424.6017 294.6342
74495.3462 294.8010
74497.4764 294.8060
74570.4014 294.9779
74587.5231 295.0182
74643.3770 295.1498
74679.7031 295.2353
74716.4030 295.3218
74771.8865 295.4524
74789.4797 295.4938
74862.6069 295.6659
74864.0730 295.6694
74935.7847 295.8381
74956.2588 295.8862
75009.0132 296.0103
75048.4481 296.1030
75082.2925 296.1826
75140.6409 296.3198
75155.6225 296.3550
75229.0034 296.5274
75232.8363 296.5364
75302.4350 296.6999
75325.0317 296.7530
75375.9176 296.8725
75417.2306 296.9694
75449.4512 297.0451
75509.4330 297.1859
75523.0358 297.2178
75596.6714 297.3905
75601.6378 297.4022
75670.3581 297.5633
75693.8429 297.6184
75744.0959 297.7362
75786.0515 297.8346
75817.8850 297.9092
75878.2638 298.0506
75891.7253 298.0822
75965.6169 298.2553
75970.4784 298.2667
76039.5597 298.4284
76062.6935 298.4826
76113.5540 298.6016
76154.9122 298.6984
76187.5997 298.7749
76247.1345 298.9142
76261.6969 298.9482
76335.8456 299.1217
76339.3595 299.1299
76410.0459 299.2951
76431.5848 299.3455
76484.2978 299.4687
76523.8137 299.5610
76558.6014 299.6423
76616.0463 299.7765
76632.9567 299.8159
76707.3638 299.9897
76708.2823 299.9918
76781.8227 300.1635
76800.5181 300.2071
76856.3335 300.3374
76892.7575 300.4223
76930.8962 300.5113
76985.0007 300.6375
77005.5109 300.6853
77077.2476 300.8526
77080.1776 300.8594
77154.8964 301.0335
77169.4948 301.0676
77229.6673 301.2078
77261.7450 301.2825
77304.4904 301.3820
77353.9990 301.4973
77379.3658 301.5564
77446.2568 301.7121
77454.2934 301.7308
77529.2734 301.9053
77538.5162 301.9268
77604.3058 302.0798
77630.7776 302.1414
77679.3906 302.2544
77723.0428 302.3559
77754.5279 302.4291
77815.3119 302.5704
77829.7178 302.6039
77904.9603 302.7787
77907.5841 302.7848
77980.2554 302.9536
77999.8569 302.9991
78055.6032 303.1286
78092.1337 303.2134
78131.0039 303.3036
78184.4143 303.4275
78206.4574 303.4787
78276.6988 303.6416
78281.9637 303.6539
78357.5230 303.8291
78368.9846 303.8557
78433.1352 304.0044
78461.2732 304.0696
78508.8005 304.1798
78553.5657 304.2835
78584.5190 304.3552
78645.8623 304.4973
78660.2906 304.5307
78736.1154 304.7063
78738.1623 304.7111
78811.9935 304.8820
78830.4631 304.9247
78887.9248 305.0577
78922.7680 305.1383
78963.9096 305.2335
79015.0769 305.3519
79039.9479 305.4094
79107.3899 305.5653
79116.0397 305.5853
79192.1850 305.7613
79199.7053 305.7787
79268.3839 305.9374
79292.0229 305.9920
79344.6366 306.1136
79384.3446 306.2053
79420.9429 306.2898
79476.6705 306.4185
79497.3031 306.4661
79569.0005 306.6316
79573.7172 306.6425
79650.1851 306.8189
79661.3323 306.8446
79726.7070 306.9954
79753.6672 307.0576
79803.2830 307.1720
79846.0063 307.2705
79879.9131 307.3486
79938.3498 307.4833
79956.5973 307.5254
80030.6975 307.6961
80033.3358 307.7022
80110.1286 307.8790
80123.0467 307.9088
80186.9756 308.0560
80215.3996 308.1214
80263.8772 308.2330
80307.7568 308.3340
80340.8331 308.4101
80400.1185 308.5465
80417.8437 308.5873
80492.4846 308.7589
80494.9089 308.7645
80572.0286 308.9418
80584.8522 308.9713
80649.2031 309.1192
80677.2238 309.1836
80726.4325 309.2967
80769.5999 309.3958
80803.7166 309.4742
80861.9805 309.6080
80881.0558 309.6518
80954.3656 309.8201
80958.4499 309.8295
81035.8990 310.0073
81046.7529 310.0322
81113.4032 310.1851
81139.1438 310.2441
81190.9627 310.3630
81231.5394 310.4561
81268.5774 310.5410
81323.9396 310.6679
81346.2474 310.7191
81416.3445 310.8797
81423.9728 310.8972
81501.7537 311.0754
81508.7526 311.0914
81579.5901 311.2537
81601.1637 311.3031
81657.4820 311.4320
81693.5795 311.5147
81735.4296 311.6105
81786.0002 311.7262
81813.4330 311.7890
81878.4256 311.9377
81891.4922 311.9676
81969.6072 312.1463
81970.8557 312.1491
82047.7781 312.3250
82063.2877 312.3605
82126.0051 312.5038
82155.7246 312.5717
82204.2881 312.6827
82248.1665 312.7830
82282.6273 312.8617
82340.6133 312.9941
82361.0227 313.0408
82433.0652 313.2053
82439.4744 313.2199
82517.9825 313.3991
82525.5204 313.4163
82596.5470 313.5784
82617.9792 313.6273
82675.1679 313.7578
82710.4431 313.8382
82753.8455 313.9372
82802.9122 314.0491
82832.5798 314.1167
82895.3864 314.2599
82911.3707 314.2963
82987.8659 314.4706
82990.2185 314.4760
83069.1231 314.6558
83080.3480 314.6813
83148.0847 314.8356
83172.8349 314.8920
83227.1033 315.0155
83265.3271 315.1025
83306.1790 315.1955
83357.8246 315.3131
83385.3119 315.3756
83450.3275 315.5235
83464.5021 315.5558
83542.8358 315.7339
83543.7496 315.7360
83623.0544 315.9163
83635.3467 315.9443
83702.4168 316.0967
83727.8630 316.1546
83781.8367 316.2772
83820.3847 316.3648
83861.3143 316.4578
83912.9120 316.5750
83940.8496 316.6384
84005.4448 316.7851
84020.4427 316.8192
84097.9833 316.9952
84100.0937 317.0000
84179.8026 317.1809
84190.5250 317.2052
84259.5696 317.3618
84283.0720 317.4152
84339.3947 317.5429
84375.6246 317.6251
84419.2779 317.7240
84468.1831 317.8349
84499.2195 317.9053
84560.7473 318.0447
84579.2195 318.0866
84653.3173 318.2545
84659.2779 318.2680
84739.3948 318.4494
84745.8918 318.4641
84819.5703 318.6310
84838.4708 318.6738
84899.8045 318.8126
84931.0559 318.8834
84980.0974 318.9944
85023.6469 319.0929
85060.4493 319.1762
85116.2439 319.3024
85140.8601 319.3581
85208.8470 319.5118
85221.3299 319.5400
85301.4562 319.7212
85301.8589 319.7221
85382.4470 319.9043
85394.0689 319.9305
85463.0944 320.0865
85486.6878 320.1398
85543.8012 320.2688
85579.3129 320.3490
85624.5675 320.4512
85671.9443 320.5582
85705.3933 320.6337
85764.5819 320.7673
85786.2788 320.8163
85857.2259 320.9764
85867.2240 320.9990
85948.2290 321.1817
85949.8759 321.1854
86029.2938 321.3646
86042.5302 321.3944
86110.4187 321.5475
86135.1909 321.6033
86191.6036 321.7305
86227.8582 321.8122
86272.8488 321.9136
86320.5320 322.0211
86354.1542 322.0968
86413.2124 322.2298
86435.5199 322.2801
86505.8994 322.4386
86516.9461 322.4635
86598.4328 322.6469
86598.5931 322.6473
86679.9801 322.8305
86691.2911 322.8559
86761.5882 323.0141
86783.9958 323.0645
86843.2570 323.1978
86876.7074 323.2731
86924.9868 323.3816
86969.4258 323.4816
87006.7776 323.5656
87062.1511 323.6900
87088.6294 323.7496
87154.8834 323.8984
87170.5425 323.9336
87247.6226 324.1068
87252.5168 324.1178
87334.5525 324.3021
87340.3676 324.3151
87416.6497 324.4865
87433.1186 324.5234
87498.8084 324.6709
87525.8768 324.7317
87581.0288 324.8554
87618.6420 324.9399
87663.3109 325.0401
87711.4145 325.1480
87745.6549 325.2248
87804.1943 325.3561
87828.0609 325.4096
87896.9813 325.5642
87910.5289 325.5946
