SF_Version 0.9.3
03-Sep-2024 23:12:15
Temp(K) Pressure(MPa) Temp(K) Pressure(MPa)  Points 
0.1000 1071.2224 201.9335 670.8401 1960.0000 
###########################################################
D H (J/kg)  D S (J/(K*kg)
247693.4524 -3321.8646
247534.8387 -3321.8647
246821.5765 -3321.8620
246816.5504 -3321.8620
246108.2870 -3321.8538
245939.6506 -3321.8510
245394.9747 -3321.8397
245062.7289 -3321.8312
244681.6447 -3321.8198
244185.8276 -3321.8025
243968.3017 -3321.7940
243309.0386 -3321.7649
243254.9504 -3321.7623
242541.5954 -3321.7248
242432.5056 -3321.7185
241828.2415 -3321.6815
241556.3983 -3321.6634
241114.8938 -3321.6322
240680.9183 -3321.5993
240401.5580 -3321.5768
239806.2968 -3321.5256
239688.2408 -3321.5149
238974.9503 -3321.4459
238932.7873 -3321.4416
238261.6961 -3321.3691
238060.6577 -3321.3460
237548.4901 -3321.2836
237190.1661 -3321.2370
236835.3463 -3321.1882
236321.5779 -3321.1126
236122.2816 -3321.0815
235455.1503 -3320.9702
235409.3161 -3320.9621
234696.4734 -3320.8281
234591.1385 -3320.8070
233983.7802 -3320.6777
233729.7719 -3320.6198
233271.2665 -3320.5088
232871.2666 -3320.4053
232558.9660 -3320.3195
232015.8260 -3320.1599
231846.9154 -3320.1073
231163.6374 -3319.8803
231135.1547 -3319.8703
230423.7284 -3319.6059
230314.8813 -3319.5630
229712.6820 -3319.3120
229469.7095 -3319.2046
229002.0643 -3318.9864
228628.2651 -3318.8018
228291.9280 -3318.6268
227790.6810 -3318.3513
227582.3287 -3318.2309
226957.0779 -3317.8499
226873.3253 -3317.7964
226164.9805 -3317.3209
226127.5662 -3317.2946
225457.3598 -3316.8020
225302.2440 -3316.6824
224750.5257 -3316.2380
224481.1870 -3316.0109
224044.5438 -3315.6268
223664.4651 -3315.2777
223339.4803 -3314.9668
222852.1384 -3314.4809
222635.4018 -3314.2563
222044.2583 -3313.6191
221932.3753 -3313.4939
221240.8695 -3312.6906
221230.4684 -3312.6781
220529.7557 -3311.8072
220442.0173 -3311.6944
219830.3006 -3310.8805
219647.7286 -3310.6293
219132.1701 -3309.8968
218858.0300 -3309.4947
218435.4314 -3308.8554
218072.9439 -3308.2900
217740.1504 -3307.7553
217292.4874 -3307.0149
217046.3914 -3306.5961
216516.6737 -3305.6693
216354.2174 -3305.3772
215745.5128 -3304.2534
215663.6900 -3304.0983
214979.0128 -3302.7674
214974.8697 -3302.7591
214287.8249 -3301.3590
214217.1854 -3301.2117
213602.6057 -3299.8983
213460.0305 -3299.5867
212919.2682 -3298.3771
212707.5514 -3297.8931
212237.8675 -3296.7953
211959.7509 -3296.1317
211558.4566 -3295.1533
211216.6304 -3294.3032
210881.0871 -3293.4511
210478.1907 -3292.4085
210205.8086 -3291.6893
209744.4321 -3290.4486
209532.6693 -3289.8680
209015.3551 -3288.4246
208861.7159 -3287.9878
208290.9603 -3286.3375
208192.9940 -3286.0491
207571.2484 -3284.1885
207526.5478 -3284.0524
206862.4216 -3281.9981
206856.2208 -3281.9787
206200.6649 -3279.8866
206145.8811 -3279.7092
205541.3087 -3277.7187
205440.2260 -3277.3811
204884.3918 -3275.4952
204739.2560 -3274.9959
204229.9517 -3273.2165
204042.9718 -3272.5545
203578.0248 -3270.8834
203351.3743 -3270.0583
202928.6466 -3268.4966
202664.4649 -3267.5084
202281.8518 -3266.0567
201982.2452 -3264.9061
201637.6740 -3263.5643
201304.7172 -3262.2525
200996.1462 -3261.0202
200631.8832 -3259.5489
200357.3003 -3258.4250
199963.7451 -3256.7964
199721.1674 -3255.7794
199300.3053 -3253.9961
199087.7779 -3253.0841
198641.5660 -3251.1493
198457.1612 -3250.3397
197987.5294 -3248.2570
197829.3465 -3247.5469
197338.1975 -3245.3205
197204.3621 -3244.7064
196693.5725 -3242.3407
196582.2361 -3241.8189
196053.6560 -3239.3187
195962.9956 -3238.8849
195418.4497 -3236.2557
195346.6676 -3235.9052
194787.9547 -3233.1527
194733.2784 -3232.8803
194162.1720 -3230.0107
194122.8538 -3229.8109
193541.1024 -3226.8307
193515.4192 -3226.6976
192924.7463 -3223.6136
192910.9995 -3223.5411
192313.1040 -3220.3605
192309.6196 -3220.3418
191711.3065 -3217.1004
191706.1761 -3217.0724
191116.0827 -3213.8174
191103.9619 -3213.7500
190523.9705 -3210.4935
190506.4605 -3210.3944
189934.9933 -3207.1292
189913.6710 -3207.0064
189349.1743 -3203.7250
189325.5921 -3203.5869
188766.5366 -3200.2815
188742.2221 -3200.1368
188187.1029 -3196.7993
188163.5587 -3196.6568
187610.8960 -3193.2787
187589.5997 -3193.1477
187037.9382 -3189.7205
187020.3420 -3189.6104
186468.2520 -3186.1249
186455.7822 -3186.0457
185901.8594 -3182.4926
185895.9165 -3182.4542
185340.7408 -3178.8367
185338.7839 -3178.8239
184790.2508 -3175.1940
184779.0515 -3175.1192
184244.4407 -3171.5267
184222.6798 -3171.3791
183703.3048 -3167.8355
183669.6906 -3167.6040
183166.8370 -3164.1210
183120.1056 -3163.7943
182635.0306 -3160.3840
182573.9463 -3159.9506
182107.8786 -3156.6250
182031.2342 -3156.0731
181585.3735 -3152.8447
181491.9908 -3152.1623
181067.5073 -3149.0436
180956.2374 -3148.2187
180554.2716 -3145.2224
180423.9953 -3144.2425
180045.6576 -3141.3816
179895.2857 -3140.2342
179541.6560 -3137.5217
179370.1296 -3136.1942
179042.2571 -3133.6433
178848.5483 -3132.1228
178547.4508 -3129.7470
178330.5628 -3128.0203
178057.2264 -3125.8332
177816.1940 -3123.8872
177571.5731 -3121.9024
177305.4628 -3119.7238
177090.4795 -3117.9550
176798.3901 -3115.5304
176613.9337 -3113.9917
176294.9966 -3111.3074
176141.9238 -3110.0128
175795.3031 -3107.0551
175674.4371 -3106.0187
175299.3303 -3102.7738
175211.4608 -3102.0100
174807.0986 -3098.4638
174752.9814 -3097.9870
174318.6285 -3094.1255
174298.9854 -3093.9500
173849.4603 -3089.8996
173833.9603 -3089.7588
173404.3923 -3085.8362
173353.1217 -3085.3638
172963.7643 -3081.7599
172876.1083 -3080.9414
172527.5610 -3077.6714
172402.9400 -3076.4918
172095.7667 -3073.5708
171933.6366 -3072.0153
171668.3656 -3069.4585
171468.2178 -3067.5122
171245.3410 -3065.3350
171006.7029 -3062.9829
170826.6764 -3061.2004
170549.1111 -3058.4275
170412.3546 -3057.0551
170095.4615 -3053.8464
170002.3581 -3052.8995
169645.7726 -3049.2399
169596.6691 -3048.7337
169200.0631 -3044.6082
169195.2695 -3044.5582
168798.1457 -3040.3731
168758.4152 -3039.9506
168405.2747 -3036.1788
168320.7934 -3035.2683
168016.6368 -3031.9755
167887.2075 -3030.5616
167632.2128 -3027.7635
167457.6749 -3025.8308
167251.9828 -3023.5430
167032.2123 -3021.0763
166875.9271 -3019.3143
166610.8364 -3016.2982
166504.0252 -3015.0776
166193.5631 -3011.4970
166136.2568 -3010.8331
165780.4082 -3006.6728
165772.6008 -3006.5811
165413.0419 -3002.3218
165371.4641 -3001.8248
165057.5541 -2998.0554
164966.6852 -2996.9541
164706.1147 -2993.7820
164566.0714 -2992.0614
164358.7018 -2989.5020
164169.6363 -2987.1468
164015.2932 -2985.2155
163777.3929 -2982.2107
163675.8662 -2980.9226
163389.3538 -2977.2534
163340.3981 -2976.6236
163008.8663 -2972.3186
163005.5373 -2972.2750
162681.2541 -2968.0079
162626.0475 -2967.2746
162357.5311 -2963.6916
162250.7973 -2962.2538
162037.6733 -2959.3698
161879.7963 -2957.2130
161721.6569 -2955.0427
161513.0535 -2952.1525
161409.4576 -2950.7105
161150.5771 -2947.0725
161101.0510 -2946.3733
160796.4131 -2942.0313
160792.3833 -2941.9734
160495.5259 -2937.6846
160438.5770 -2936.8539
160198.3571 -2933.3334
160089.0581 -2931.7160
159904.8814 -2928.9778
159743.8315 -2926.5601
159615.0733 -2924.6179
159402.9011 -2921.3863
159328.9075 -2920.2539
159066.2703 -2916.1950
159046.3579 -2915.8858
158767.4043 -2911.5139
158734.0167 -2910.9857
158492.0183 -2907.1382
158406.1110 -2905.7590
158220.1705 -2902.7589
158082.5084 -2900.5159
157951.8343 -2898.3761
157763.2081 -2895.2567
157686.9833 -2893.9898
157448.2085 -2889.9818
157425.5906 -2889.6003
157167.6348 -2885.2075
157137.5762 -2884.6908
156913.0874 -2880.8117
156831.2890 -2879.3841
156661.9176 -2876.4129
156529.2897 -2874.0628
156414.0980 -2872.0111
156231.5725 -2868.7274
156169.6013 -2867.6066
155938.1302 -2863.3781
155928.4001 -2863.1994
155690.4746 -2858.7896
155649.0507 -2858.0143
155455.7914 -2854.3773
155364.2492 -2852.6371
155224.3210 -2849.9626
155083.6929 -2847.2473
154996.0355 -2845.5455
154807.3703 -2841.8453
154770.9072 -2841.1262
154548.9110 -2836.7047
154535.2999 -2836.4310
154330.0234 -2832.2811
154267.5165 -2831.0044
154114.2091 -2827.8555
154003.9228 -2825.5668
153901.4402 -2823.4279
153744.5028 -2820.1186
153691.6886 -2818.9985
153489.2397 -2814.6602
153484.9260 -2814.5673
153281.1336 -2810.1343
11049.8677 128.1766
11091.2583 128.0718
11114.8896 128.0136
11075.7647 128.1099
11080.4841 128.0981
11091.0155 128.0718
11101.5597 128.0457
11108.3183 128.0291
11112.1166 128.0198
11122.6860 127.9941
11133.2685 127.9686
11141.0137 127.9501
11143.8639 127.9433
11154.4721 127.9183
11165.0936 127.8934
11173.8528 127.8731
11175.7282 127.8687
11186.3758 127.8443
11197.0369 127.8201
11206.8375 127.7980
11207.7114 127.7960
11218.3990 127.7722
11229.1004 127.7486
11239.8154 127.7252
11239.9698 127.7248
11250.5438 127.7020
11261.2861 127.6790
11272.0423 127.6562
11273.2515 127.6537
11282.8121 127.6336
11293.5960 127.6113
11304.3940 127.5891
11306.6845 127.5844
11315.2059 127.5671
11326.0320 127.5454
11336.8724 127.5239
11340.2707 127.5172
11347.7270 127.5026
11358.5960 127.4814
11369.4796 127.4605
11374.0120 127.4519
11380.3776 127.4398
11391.2901 127.4194
11402.2174 127.3991
11407.9101 127.3886
11413.1594 127.3790
11424.1161 127.3592
11435.0878 127.3395
11441.9669 127.3273
11446.0745 127.3201
11457.0760 127.3008
11468.0927 127.2818
11476.1842 127.2680
11479.1246 127.2630
11490.1716 127.2444
11501.2340 127.2260
11510.5638 127.2107
11512.3118 127.2079
11523.4049 127.1899
11534.5136 127.1721
11545.1073 127.1554
11545.6380 127.1546
11556.7777 127.1373
11567.9333 127.1201
11579.1049 127.1032
11579.8166 127.1022
11590.2920 127.0865
11601.4951 127.0700
11612.7145 127.0538
11614.6935 127.0509
11623.9496 127.0377
11635.2009 127.0218
11646.4686 127.0062
11649.7396 127.0017
11657.7524 126.9908
11669.0526 126.9755
11680.3693 126.9605
11684.9566 126.9545
11691.7023 126.9457
11703.0519 126.9312
11714.4183 126.9168
11720.3463 126.9094
11725.8012 126.9026
11737.2009 126.8887
11748.6175 126.8749
11755.9104 126.8663
11760.0510 126.8614
11771.5013 126.8481
11782.9688 126.8350
11791.6506 126.8252
11794.4534 126.8221
11805.9550 126.8094
11817.4740 126.7969
11827.5684 126.7862
11829.0104 126.7847
11840.5639 126.7726
11852.1351 126.7608
11863.6656 126.7492
11863.7239 126.7492
11875.3299 126.7378
11886.9538 126.7266
11898.5955 126.7156
11899.9438 126.7144
11910.2548 126.7048
11921.9320 126.6943
11933.6273 126.6839
11936.4046 126.6815
11945.3404 126.6738
11957.0716 126.6639
11968.8210 126.6542
11973.0495 126.6508
11980.5885 126.6447
11992.3743 126.6354
12004.1786 126.6264
12009.8803 126.6221
12016.0011 126.6175
12027.8421 126.6089
12039.7017 126.6004
12046.8984 126.5954
12051.5799 126.5922
12063.4767 126.5842
12075.3923 126.5764
12084.1054 126.5709
12087.3267 126.5689
12099.2799 126.5615
12111.2521 126.5544
12121.5028 126.5484
12123.2434 126.5474
12135.2536 126.5407
12147.2830 126.5342
12159.0921 126.5280
12159.3317 126.5279
12171.3995 126.5218
12183.4867 126.5160
12195.5935 126.5103
12196.8747 126.5097
12207.7194 126.5049
12219.8650 126.4996
12232.0304 126.4946
12234.8522 126.4935
12244.2152 126.4898
12256.4197 126.4852
12268.6443 126.4809
12273.0260 126.4794
12280.8885 126.4767
12293.1526 126.4728
12305.4369 126.4690
12311.3974 126.4673
12317.7412 126.4655
12330.0655 126.4622
12342.4101 126.4591
12349.9679 126.4573
12354.7749 126.4562
12367.1599 126.4536
12379.5655 126.4511
12388.7388 126.4495
12391.9915 126.4489
12404.4378 126.4469
12416.9049 126.4451
12427.7115 126.4437
12429.3926 126.4435
12441.9008 126.4421
12454.4300 126.4409
12466.8872 126.4400
12466.9800 126.4400
12479.5507 126.4392
12492.1424 126.4387
12504.7554 126.4384
12506.2672 126.4384
12517.3891 126.4383
12530.0440 126.4384
12542.7203 126.4387
12545.8528 126.4388
12555.4177 126.4393
12568.1364 126.4400
12580.8767 126.4410
12585.6453 126.4414
12593.6382 126.4422
12606.4213 126.4435
12619.2260 126.4452
12625.6457 126.4460
12632.0523 126.4470
12644.9003 126.4490
12657.7701 126.4513
12665.8553 126.4528
12670.6617 126.4537
12683.5750 126.4564
12696.5104 126.4593
12706.2752 126.4616
12709.4679 126.4624
12722.4472 126.4657
12735.4487 126.4692
12746.9065 126.4725
12748.4726 126.4729
12761.5184 126.4769
12774.5866 126.4811
12787.6774 126.4854
12787.7504 126.4855
12800.7903 126.4900
12813.9258 126.4948
12827.0840 126.4998
12828.8079 126.5005
12840.2645 126.5051
12853.4678 126.5105
12866.6940 126.5162
12870.0800 126.5176
12879.9427 126.5220
12893.2143 126.5281
12906.5090 126.5344
12911.5679 126.5368
12919.8265 126.5409
12933.1670 126.5476
12946.5307 126.5546
12953.2726 126.5581
12959.9175 126.5617
12973.3274 126.5690
12986.7607 126.5766
12995.1951 126.5815
13000.2173 126.5844
13013.6972 126.5924
13027.2006 126.6006
13037.3363 126.6069
13040.7276 126.6090
13054.2780 126.6176
13067.8521 126.6265
13079.6973 126.6344
13081.4500 126.6355
13095.0714 126.6448
13108.7168 126.6543
13122.2790 126.6639
13122.3861 126.6640
13136.0791 126.6739
13149.7962 126.6840
13163.5375 126.6943
13165.0824 126.6955
13177.3026 126.7048
13191.0920 126.7156
13204.9058 126.7265
13208.1083 126.7291
13218.7436 126.7377
13232.6058 126.7491
13246.4926 126.7607
13251.3577 126.7648
13260.4036 126.7725
13274.3392 126.7845
13288.2995 126.7968
13294.8314 126.8025
13302.2843 126.8092
13316.2937 126.8218
13330.3281 126.8347
13338.5303 126.8423
13344.3872 126.8478
13358.4711 126.8611
13372.5800 126.8746
13382.4552 126.8841
13386.7139 126.8883
13400.8727 126.9022
13415.0568 126.9163
13426.6068 126.9280
13429.2661 126.9307
13443.5003 126.9452
13457.7600 126.9600
13470.9861 126.9739
13472.0451 126.9750
13486.3554 126.9902
13500.6912 127.0056
13515.0527 127.0212
13515.5936 127.0218
13529.4395 127.0370
13543.8520 127.0530
13558.2903 127.0693
13560.4302 127.0717
13572.7542 127.0857
13587.2439 127.1024
13601.7596 127.1192
13605.4965 127.1236
13616.3010 127.1363
13630.8684 127.1536
13645.4620 127.1711
13650.7933 127.1776
13660.0815 127.1888
13674.7271 127.2068
13689.3990 127.2249
13696.3211 127.2335
13704.0971 127.2432
13718.8215 127.2618
13733.5723 127.2806
13742.0805 127.2915
13748.3495 127.2995
13763.1530 127.3187
13777.9833 127.3381
13788.0722 127.3514
13792.8401 127.3577
13807.7233 127.3775
13822.6334 127.3975
13834.2968 127.4133
13837.5703 127.4178
13852.5338 127.4382
13867.5242 127.4589
13880.7546 127.4772
13882.5417 127.4797
13897.5859 127.5008
13912.6572 127.5221
13927.4464 127.5431
13927.7558 127.5436
13942.8811 127.5652
13958.0338 127.5871
13973.2139 127.6093
13974.3724 127.6110
13988.4209 127.6316
14003.6555 127.6541
14018.9175 127.6768
14021.5332 127.6808
14034.2068 127.6998
14049.5236 127.7229
14064.8681 127.7463
14068.9292 127.7525
14080.2401 127.7699
14095.6397 127.7937
14111.0672 127.8176
14116.5607 127.8262
14126.5223 127.8418
14142.0051 127.8662
14157.5160 127.8908
14164.4282 127.9019
14173.0547 127.9157
14188.6214 127.9407
14204.2161 127.9659
14212.5319 127.9794
14219.8389 127.9914
14235.4897 128.0170
14251.1689 128.0428
14260.8723 128.0589
14266.8762 128.0689
14282.6117 128.0952
14298.3756 128.1216
14309.4495 128.1403
14314.1680 128.1483
14329.9886 128.1752
14345.8378 128.2023
14358.2639 128.2237
14361.7157 128.2296
14377.6219 128.2571
14393.5568 128.2848
14407.3157 128.3089
14409.5206 128.3127
14425.5128 128.3409
14441.5340 128.3692
14456.6051 128.3960
14457.5842 128.3977
14473.6629 128.4265
14489.7708 128.4554
14505.9078 128.4846
14506.1323 128.4850
14522.0735 128.5139
14538.2684 128.5435
14554.4927 128.5733
14555.8975 128.5758
14570.7458 128.6032
14587.0284 128.6334
14603.3403 128.6638
14605.9009 128.6686
14619.6814 128.6944
14636.0519 128.7252
14652.4520 128.7562
14656.1425 128.7632
14668.8814 128.7874
14685.3404 128.8188
14701.8291 128.8504
14706.6226 128.8596
14718.3473 128.8822
14734.8951 128.9142
14751.4729 128.9464
14757.3411 128.9579
14768.0803 128.9789
14784.7175 129.0115
14801.3847 129.0443
14808.2982 129.0580
14818.0818 129.0774
14834.8087 129.1106
14851.5659 129.1441
14859.4938 129.1599
14868.3530 129.1777
14885.1702 129.2115
14902.0176 129.2456
14910.9280 129.2637
14918.8953 129.2799
14935.8031 129.3143
14952.7413 129.3490
14962.6007 129.3692
14969.7099 129.3838
14986.7087 129.4189
15003.7382 129.4542
15014.5119 129.4766
15020.7981 129.4896
15037.8884 129.5253
15055.0095 129.5612
15066.6615 129.5857
15072.1612 129.5973
15089.3434 129.6335
15106.5564 129.6700
15119.0495 129.6966
15123.8003 129.7067
15141.0748 129.7436
15158.3803 129.7807
15171.6757 129.8092
15175.7168 129.8179
15193.0840 129.8554
15210.4823 129.8931
15224.5399 129.9236
15227.9118 129.9310
15245.3721 129.9691
15262.8636 130.0074
15277.6419 130.0398
15280.3865 130.0458
15297.9403 130.0845
15315.5255 130.1234
15330.9816 130.1577
15333.1421 130.1625
15350.7898 130.2018
15368.4690 130.2413
15384.5587 130.2773
15386.1798 130.2809
15403.9217 130.3208
15421.6954 130.3609
15438.3730 130.3986
15439.5007 130.4012
15457.3373 130.4417
15475.2057 130.4823
15492.4241 130.5217
15493.1060 130.5232
15511.0376 130.5643
15529.0012 130.6056
15546.7117 130.6464
15546.9968 130.6470
15565.0238 130.6887
15583.0830 130.7306
15601.1742 130.7726
15601.2355 130.7728
15619.2970 130.8149
15637.4520 130.8573
15655.6392 130.9000
15655.9952 130.9008
15673.8582 130.9428
15692.1095 130.9859
15710.3931 131.0291
15710.9902 131.0305
15728.7086 131.0726
15747.0565 131.1162
15765.4368 131.1600
15766.2203 131.1619
15783.8491 131.2041
15802.2940 131.2483
15820.7714 131.2927
15821.6850 131.2949
15839.2809 131.3373
15857.8231 131.3821
15876.3979 131.4271
15877.3837 131.4295
15895.0050 131.4723
15913.6448 131.5177
15932.3174 131.5633
15933.3161 131.5658
15951.0223 131.6091
15969.7602 131.6551
15988.5309 131.7012
15989.4816 131.7036
16007.3340 131.7476
16026.1702 131.7942
16045.0393 131.8409
16045.8797 131.8430
16063.9410 131.8879
16082.8758 131.9350
16101.8438 131.9823
16102.5099 131.9840
16120.8444 132.0298
16139.8782 132.0776
16158.9452 132.1255
16159.3716 132.1265
16178.0450 132.1736
16197.1782 132.2219
16216.3446 132.2703
16216.4642 132.2707
16235.5440 132.3190
16254.7768 132.3679
16273.7872 132.4163
16274.0430 132.4169
16293.3422 132.4662
16312.6750 132.5156
16331.3400 132.5635
16332.0413 132.5653
16351.4407 132.6151
16370.8737 132.6651
16389.1219 132.7122
16390.3404 132.7153
16409.8403 132.7657
16429.3740 132.8163
16447.1323 132.8624
16448.9413 132.8671
16468.5421 132.9180
16488.1767 132.9692
16505.3705 133.0140
16507.8450 133.0205
16527.5469 133.0720
16547.2827 133.1238
16563.8360 133.1672
16567.0524 133.1757
16586.8557 133.2278
16606.6931 133.2800
16622.5280 133.3218
16626.5644 133.3325
16646.4695 133.3852
16666.4087 133.4380
16681.4458 133.4779
16686.3819 133.4911
16706.3890 133.5443
16726.4303 133.5977
16740.5887 133.6355
16746.5058 133.6513
16766.6152 133.7051
16786.7590 133.7590
16799.9560 133.7944
16806.9370 133.8132
16827.1491 133.8675
16847.3956 133.9221
16859.5470 133.9548
16867.6764 133.9768
16887.9913 134.0317
16908.3409 134.0868
16919.3608 134.1166
16928.7247 134.1420
16949.1429 134.1975
16969.5958 134.2531
16979.3968 134.2798
16990.0830 134.3090
17010.6047 134.3650
17031.1611 134.4212
17039.6541 134.4444
17051.7520 134.4775
17072.3774 134.5341
17093.0377 134.5908
17100.1320 134.6104
17113.7325 134.6478
17134.4620 134.7049
17155.2264 134.7622
17160.8295 134.7777
17176.0254 134.8197
17196.8592 134.8773
17217.7280 134.9352
17221.7460 134.9463
17238.6314 134.9932
17259.5698 135.0514
17280.5432 135.1098
17282.8805 135.1163
17301.5514 135.1684
17322.5946 135.2271
17343.6730 135.2861
17344.2322 135.2876
17364.7861 135.3452
17385.9344 135.4045
17405.8000 135.4602
17407.1179 135.4640
17428.3362 135.5236
17449.5899 135.5834
17467.5831 135.6342
17470.8788 135.6435
17492.2026 135.7037
17513.5618 135.7640
17529.5807 135.8094
17534.9563 135.8246
17556.3859 135.8853
17577.8510 135.9463
17591.7919 135.9859
17599.3513 136.0074
17620.8869 136.0686
17642.4580 136.1301
17654.2157 136.1636
17664.0645 136.1917
17685.7063 136.2535
17707.3837 136.3155
17716.8513 136.3426
17729.0965 136.3777
17750.8448 136.4400
17772.6287 136.5025
17779.6976 136.5228
17794.4480 136.5652
17816.3030 136.6281
17838.1937 136.6911
17842.7537 136.7043
17860.1198 136.7544
17882.0816 136.8178
17904.0793 136.8813
17906.0186 136.8869
17926.1124 136.9451
17948.1814 137.0090
17969.4914 137.0708
17970.2863 137.0731
17992.4266 137.1374
18014.6029 137.2019
18033.1706 137.2559
18036.8152 137.2665
18059.0630 137.3313
18081.3469 137.3963
18097.0558 137.4421
18103.6667 137.4614
18126.0222 137.5267
18148.4139 137.5922
18161.1458 137.6295
18170.8415 137.6579
18193.3050 137.7237
18215.8046 137.7897
18225.4398 137.8180
18238.3402 137.8559
18260.9119 137.9223
18283.5197 137.9888
18289.9367 138.0077
18306.1635 138.0555
18328.8435 138.1224
18351.5598 138.1895
18354.6355 138.1985
18374.3120 138.2567
18397.1006 138.3241
18419.5352 138.3905
18419.9255 138.3916
18442.7864 138.4594
18465.6837 138.5273
18484.6343 138.5835
18488.6174 138.5953
18511.5871 138.6636
18534.5934 138.7320
18549.9322 138.7776
18557.6361 138.8006
18580.7149 138.8693
18603.8304 138.9382
18615.4280 138.9728
18626.9822 139.0073
18650.1704 139.0766
18673.3953 139.1460
18681.1208 139.1691
18696.6565 139.2156
18719.9542 139.2854
18743.2886 139.3553
18747.0093 139.3665
18766.6594 139.4254
18790.0668 139.4957
18813.0927 139.5648
18813.5110 139.5661
18836.9916 139.6367
18860.5089 139.7075
18879.3692 139.7643
18884.0630 139.7784
18907.6536 139.8495
18931.2810 139.9208
18945.8385 139.9647
18954.9452 139.9922
18978.6461 140.0638
19002.3838 140.1356
19012.4996 140.1662
19026.1583 140.2075
19049.9695 140.2796
19073.8178 140.3519
19079.3515 140.3686
19097.7027 140.4243
19121.6246 140.4969
19145.5836 140.5696
19146.3930 140.5721
19169.5792 140.6425
19193.6118 140.7156
19213.6226 140.7765
19217.6816 140.7889
19241.7881 140.8623
19265.9318 140.9359
19281.0396 140.9819
19290.1125 141.0096
19314.3301 141.0835
19338.5850 141.1576
19348.6432 141.1883
19362.8768 141.2318
19387.2057 141.3062
19411.5720 141.3807
19416.4325 141.3956
19435.9751 141.4554
19460.4155 141.5303
19484.4062 141.6038
19484.8933 141.6053
19509.4080 141.6805
19533.9600 141.7559
19552.5625 141.8130
19558.5494 141.8314
19583.1758 141.9071
19607.8397 141.9829
19620.9012 142.0231
19632.5409 142.0589
19657.2792 142.1351
19682.0552 142.2114
19689.4214 142.2341
19706.8682 142.2879
19731.7187 142.3645
19756.6068 142.4413
19758.1219 142.4460
19781.5320 142.5182
19806.4948 142.5954
19827.0010 142.6587
19831.4951 142.6726
19856.5327 142.7501
19881.6080 142.8276
19896.0580 142.8724
19906.7207 142.9054
19931.8708 142.9833
19957.0587 143.0614
19965.2922 143.0869
19982.2839 143.1396
20007.5468 143.2179
20032.8474 143.2965
20034.7027 143.3022
20058.1853 143.3752
20083.5611 143.4540
20104.2873 143.5184
20108.9745 143.5330
20134.4254 143.6122
20159.9142 143.6915
20174.0457 143.7355
20185.4406 143.7709
20211.0047 143.8506
20236.6066 143.9303
20243.9772 143.9533
20262.2462 144.0103
20287.9235 144.0904
20313.6388 144.1706
20314.0806 144.1720
20339.3916 144.2510
20365.1824 144.3316
20384.3537 144.3915
20391.0111 144.4123
20416.8774 144.4931
20442.7818 144.5741
20454.7966 144.6117
20468.7240 144.6553
20494.7040 144.7366
20520.7222 144.8181
20525.4084 144.8328
20546.7780 144.8997
20572.8719 144.9815
20596.1876 145.0546
20599.0039 145.0634
20625.1736 145.1455
20651.3814 145.2277
20667.1325 145.2772
20677.6273 145.3101
20703.9111 145.3926
20730.2332 145.4753
20738.2432 145.5005
20756.5931 145.5582
20782.9911 145.6411
20809.4274 145.7243
20809.5188 145.7246
20835.9015 145.8076
20862.4140 145.8910
20880.9564 145.9494
20888.9646 145.9746
20915.5532 146.0583
20942.1801 146.1422
20952.5568 146.1749
20968.8452 146.2263
20995.5484 146.3104
21022.2900 146.3948
21024.3190 146.4012
21049.0696 146.4793
21075.8876 146.5639
21096.2404 146.6281
21102.7440 146.6487
21129.6384 146.7336
21156.5713 146.8187
21168.3212 146.8558
21183.5425 146.9039
21210.5519 146.9893
21237.5999 147.0748
21240.5607 147.0842
21264.6859 147.1605
21291.8105 147.2463
21312.9567 147.3132
21318.9736 147.3322
21346.1749 147.4183
21373.4147 147.5046
21385.5087 147.5429
21400.6930 147.5910
21428.0096 147.6775
21455.3649 147.7642
21458.2166 147.7733
21482.7584 147.8511
21510.1906 147.9380
21531.0777 148.0043
21537.6614 148.0252
21565.1704 148.1124
21592.7183 148.1999
21604.0920 148.2359
21620.3045 148.2874
21647.9294 148.3751
21675.5930 148.4630
21677.2592 148.4683
21703.2949 148.5510
21731.0356 148.6391
21750.5763 148.7012
21758.8150 148.7274
21786.6329 148.8158
21814.4896 148.9044
21824.0440 148.9347
21842.3848 148.9931
21870.3188 149.0819
21897.6615 149.1689
21898.2917 149.1709
21926.3029 149.2601
21954.3531 149.3493
21971.4256 149.4037
21982.4421 149.4388
22010.5696 149.5283
22038.7362 149.6180
22045.3379 149.6391
22066.9413 149.7079
22095.1854 149.7979
22119.3962 149.8750
22123.4683 149.8880
22151.7899 149.9783
22180.1505 150.0687
22193.5991 150.1116
22208.5499 150.1592
22236.9881 150.2499
22265.4654 150.3408
22267.9472 150.3487
22293.9813 150.4317
22322.5363 150.5228
22342.4375 150.5863
22351.1302 150.6141
22379.7630 150.7055
22408.4348 150.7970
22417.0704 150.8246
22437.1455 150.8887
22465.8952 150.9805
22491.8451 151.0634
22494.6841 151.0724
22523.5117 151.1645
22552.3785 151.2567
22566.7591 151.3027
22581.2842 151.3491
22610.2290 151.4416
22639.2130 151.5342
22641.8136 151.5425
22668.2358 151.6270
22697.2979 151.7199
22717.0054 151.7829
22726.3991 151.8130
22755.5392 151.9061
22784.7187 151.9995
22792.3352 152.0238
22813.9371 152.0929
22843.1947 152.1865
22867.8017 152.2652
22872.4916 152.2802
22901.8274 152.3741
22931.2026 152.4681
22943.4031 152.5071
22960.6169 152.5622
22990.0704 152.6565
23019.1403 152.7496
23019.5633 152.7509
23049.0951 152.8455
23078.6664 152.9401
23095.0095 152.9925
23108.2769 153.0349
23137.9265 153.1299
23167.6157 153.2250
23171.0129 153.2359
23197.3439 153.3202
23227.1115 153.4155
23247.1470 153.4797
23256.9185 153.5110
23286.7646 153.6066
23316.6503 153.7024
23323.4127 153.7240
23346.5751 153.7983
23376.5394 153.8943
23399.8081 153.9688
23406.5431 153.9904
23436.5860 154.0867
23466.6685 154.1831
23476.3324 154.2141
23496.7903 154.2796
23526.9515 154.3763
23552.9854 154.4598
23557.1523 154.4731
23587.3922 154.5701
23617.6718 154.6671
23629.7647 154.7059
23647.9908 154.7643
23678.3492 154.8617
23706.6716 154.9525
23708.7473 154.9591
23739.1845 155.0567
23769.6615 155.1544
23783.7023 155.1995
23800.1779 155.2523
23830.7338 155.3503
23860.8593 155.4469
23861.3295 155.4484
23891.9643 155.5466
23922.6389 155.6450
23938.1379 155.6947
23953.3531 155.7435
23984.1067 155.8421
24014.9001 155.9409
24015.5412 155.9430
24045.7329 156.0398
24076.6054 156.1388
24093.0644 156.1916
24107.5175 156.2380
24138.4691 156.3372
24169.4606 156.4366
24170.7104 156.4406
24200.4914 156.5362
24231.5621 156.6358
24248.4746 156.6901
24262.6724 156.7356
24293.8223 156.8355
24325.0121 156.9356
24326.3599 156.9399
24356.2413 157.0357
24387.5103 157.1360
24404.3616 157.1901
24418.8191 157.2364
24450.1674 157.3370
24481.5558 157.4377
24482.4827 157.4406
24512.9835 157.5385
24544.4512 157.6394
24560.7183 157.6915
24575.9586 157.7404
24607.5057 157.8416
24639.0718 157.9428
24639.0928 157.9429
24670.7194 158.0443
24702.3859 158.1459
24717.5379 158.1945
24734.0922 158.2476
24765.8382 158.3494
24796.1201 158.4464
24797.6243 158.4513
24829.4499 158.5533
24861.3155 158.6555
24874.8136 158.6988
24893.2209 158.7578
24925.1661 158.8602
24953.6209 158.9514
24957.1513 158.9627
24989.1761 159.0654
25021.2410 159.1682
25032.5385 159.2044
25053.3456 159.2711
25085.4902 159.3741
25111.5676 159.4577
25117.6748 159.4773
25149.8990 159.5806
25182.1634 159.6840
25190.7060 159.7114
25214.4675 159.7875
25246.8116 159.8911
25269.9534 159.9653
25279.1958 159.9949
25311.6196 160.0988
25344.0837 160.2028
25349.3094 160.2195
25376.5875 160.3069
25409.1313 160.4112
25428.7718 160.4741
25441.7151 160.5156
25474.3388 160.6200
25507.0027 160.7247
25508.3421 160.7289
25539.7063 160.8294
25572.4501 160.9342
25588.0161 160.9841
25605.2338 161.0392
25638.0574 161.1443
25667.7967 161.2395
25670.9213 161.2495
25703.8249 161.3548
25736.7687 161.4603
25747.6799 161.4952
25769.7525 161.5658
25802.7763 161.6715
25827.6671 161.7512
25835.8402 161.7773
25868.9440 161.8833
25902.0881 161.9893
25907.7568 162.0074
25935.2720 162.0955
25968.4961 162.2017
25987.9473 162.2639
26001.7602 162.3081
26035.0644 162.4146
26068.2403 162.5207
26068.4088 162.5213
26101.7930 162.6280
26135.2175 162.7349
26148.6310 162.7777
26168.6820 162.8418
26202.1867 162.9489
26229.1225 163.0350
26235.7315 163.0561
26269.3162 163.1635
26302.9413 163.2709
26309.7119 163.2925
26336.6063 163.3785
26370.3115 163.4861
26390.3986 163.5503
26404.0569 163.5939
26437.8423 163.7018
26471.1837 163.8083
26471.6680 163.8098
26505.5336 163.9180
26539.4395 164.0262
26552.0627 164.0665
26573.3855 164.1346
26607.3717 164.2430
26633.0383 164.3249
26641.3982 164.3516
26675.4646 164.4603
26709.5714 164.5691
26714.1087 164.5836
26743.7181 164.6781
26777.9052 164.7871
26795.2718 164.8425
26812.1324 164.8963
26846.3998 165.0055
26876.5294 165.1016
26880.7076 165.1149
26915.0552 165.2244
26949.4433 165.3340
26957.8781 165.3609
26983.8715 165.4437
27018.3399 165.5536
27039.3186 165.6204
27052.8486 165.6635
27087.3973 165.7735
27120.8513 165.8801
27121.9866 165.8837
27156.6157 165.9940
27191.2853 166.1044
27202.4720 166.1400
27225.9951 166.2149
27260.7451 166.3255
27284.1831 166.4001
27295.5354 166.4362
27330.3658 166.5470
27365.2367 166.6580
27365.9840 166.6603
27400.1476 166.7690
27435.0989 166.8802
27447.8706 166.9208
27470.0904 166.9914
27505.1222 167.1028
27529.8457 167.1814
27540.1943 167.2143
27575.3066 167.3259
27610.4594 167.4376
27611.9082 167.4422
27645.6521 167.5494
27680.8854 167.6613
27694.0545 167.7032
27716.1589 167.7734
27751.4726 167.8855
27776.2872 167.9643
27786.8268 167.9977
27822.2211 168.1101
27857.6559 168.2226
27858.6052 168.2256
27893.1308 168.3351
27928.6462 168.4478
27941.0048 168.4870
27964.2018 168.5606
27999.7977 168.6735
28023.4887 168.7486
28035.4341 168.7865
28071.1106 168.8996
28106.0561 169.0103
28106.8277 169.0128
28142.5848 169.1261
28178.3825 169.2395
28188.7032 169.2722
28214.2204 169.3531
28250.0988 169.4667
28271.4321 169.5343
28286.0175 169.5804
28321.9764 169.6943
28354.2425 169.7964
28357.9759 169.8082
28394.0155 169.9223
28430.0958 170.0365
28437.1315 170.0587
28466.2161 170.1507
28502.3770 170.2651
28520.0995 170.3211
28538.5782 170.3796
28574.8198 170.4942
28603.1469 170.5837
28611.1019 170.6088
28647.4242 170.7236
28683.7871 170.8385
28686.2723 170.8464
28720.1901 170.9535
28756.6337 171.0686
28769.4734 171.1092
28793.1176 171.1838
28829.6420 171.2991
28852.7520 171.3721
28866.2068 171.4145
28902.8119 171.5300
28936.1075 171.6351
28939.4577 171.6457
28976.1436 171.7614
29012.8701 171.8772
29019.5371 171.8982
29049.6369 171.9931
29086.4443 172.1091
29103.0412 172.1614
29123.2920 172.2253
29160.1801 172.3415
29186.6203 172.4248
29197.1088 172.4578
29234.0778 172.5742
29270.2737 172.6882
29271.0874 172.6908
29308.1372 172.8074
29345.2278 172.9241
29353.9980 172.9517
29382.3585 173.0410
29419.5299 173.1579
29437.7952 173.2154
29456.7417 173.2750
29493.9939 173.3921
29521.6649 173.4791
29531.2868 173.5093
29568.6199 173.6267
29605.6065 173.7429
29605.9937 173.7441
29643.4077 173.8616
29680.8625 173.9793
29689.6166 174.0068
29718.3576 174.0970
29755.8932 174.2148
29773.6973 174.2707
29793.4694 174.3328
29831.0860 174.4508
29857.8481 174.5347
29868.7432 174.5689
29906.4407 174.6872
29942.0683 174.7989
29944.1790 174.8055
29981.9575 174.9239
30019.7768 175.0424
30026.3554 175.0630
30057.6363 175.1611
30095.5366 175.2798
30110.7102 175.3273
30133.4772 175.3986
30171.4585 175.5175
30195.1327 175.5916
30209.4802 175.6365
30247.5424 175.7556
30279.6224 175.8560
30285.6453 175.8748
30323.7885 175.9941
30361.9725 176.1135
30364.1780 176.1204
30400.1967 176.2330
30438.4617 176.3526
30448.7977 176.3849
30476.7671 176.4723
30515.1131 176.5921
30533.4828 176.6495
30553.4996 176.7120
30591.9266 176.8319
30618.2328 176.9141
30630.3942 176.9520
30668.9023 177.0722
30703.0472 177.1787
30707.4511 177.1924
30746.0401 177.3128
30784.6700 177.4333
30787.9242 177.4434
30823.3402 177.5538
30862.0511 177.6744
30872.8630 177.7081
30900.8024 177.7952
30939.5943 177.9160
30957.8645 177.9729
30978.4267 178.0369
31017.2997 178.1580
31042.9281 178.2377
31056.2133 178.2791
31095.1673 178.4003
31128.0531 178.5026
31134.1621 178.5216
31173.1972 178.6430
31212.2730 178.7645
31213.2389 178.7675
31251.3892 178.8860
31290.5461 179.0077
31298.4831 179.0324
31329.7433 179.1295
31368.9813 179.2513
31383.7873 179.2973
31408.2597 179.3733
31447.5787 179.4953
31469.1508 179.5623
31486.9383 179.6174
31526.3383 179.7397
31554.5731 179.8272
31565.7790 179.8620
31605.2601 179.9844
31640.0538 180.0922
31644.7819 180.1069
31684.3441 180.2295
31723.9470 180.3522
31725.5916 180.3573
31763.5902 180.4749
31803.2742 180.5978
31811.1852 180.6223
31842.9985 180.7208
31882.7635 180.8438
31896.8355 180.8873
31922.5689 180.9669
31962.4149 181.0902
31982.5421 181.1524
32002.3015 181.2135
32042.2285 181.3369
32068.3043 181.4175
32082.1962 181.4604
32122.2043 181.5840
32154.1217 181.6825
32162.2530 181.7076
32202.3421 181.8314
32239.9937 181.9476
32242.4720 181.9553
32282.6421 182.0792
32322.8530 182.2032
32325.9189 182.2127
32363.1041 182.3273
32403.3960 182.4516
32411.8971 182.4778
32443.7282 182.5758
32484.1011 182.7002
32497.9283 182.7428
32524.5144 182.8247
32564.9683 182.9493
32584.0123 183.0079
32605.4627 183.0739
32645.9976 183.1986
32670.1484 183.2729
32686.5730 183.3235
32727.1888 183.4484
32756.3363 183.5380
32767.8453 183.5734
32808.5421 183.6984
32842.5753 183.8030
32849.2796 183.8236
32890.0574 183.9489
32928.8650 184.0680
32930.8759 184.0742
32971.7346 184.1996
33012.6341 184.3251
33015.2042 184.3330
33053.5738 184.4507
33094.5543 184.5764
33101.5925 184.5980
33135.5750 184.7022
33176.6364 184.8281
33188.0301 184.8630
33217.7380 184.9540
33258.8803 185.0800
33274.5166 185.1279
33300.0630 185.2061
33341.2862 185.3323
33361.0515 185.3928
33382.5499 185.4586
33423.8540 185.5850
33447.6342 185.6577
33465.1986 185.7114
33506.5835 185.8380
33534.2645 185.9226
33548.0091 185.9646
33589.4749 186.0913
33620.9417 186.1874
33630.9814 186.2181
33672.5282 186.3449
33707.6654 186.4522
33714.1156 186.4719
33755.7432 186.5989
33794.4353 186.7170
33797.4115 186.7260
33839.1199 186.8532
33880.8691 186.9805
33881.2507 186.9817
33922.6585 187.1079
33964.4885 187.2353
33968.1105 187.2464
34006.3587 187.3629
34048.2696 187.4905
34055.0151 187.5110
34090.2208 187.6182
34132.2125 187.7459
34141.9641 187.7756
34174.2445 187.8738
34216.3171 188.0017
34228.9572 188.0402
34258.4300 188.1298
34300.5834 188.2579
34315.9940 188.3047
34342.7772 188.3861
34385.0115 188.5143
34403.0739 188.5692
34427.2862 188.6427
34469.6013 188.7711
34490.1967 188.8336
34511.9569 188.8996
34554.3529 189.0282
34577.3620 189.0980
34596.7893 189.1569
34639.2662 189.2856
34664.5694 189.3623
34681.7836 189.4144
34724.3413 189.5433
34751.8185 189.6266
34766.9395 189.6723
34809.5781 189.8014
34839.1089 189.8908
34852.2573 189.9306
34894.9768 190.0598
34926.4403 190.1549
34937.7369 190.1891
34980.5372 190.3185
35013.8124 190.4190
35023.3782 190.4480
35066.2595 190.5775
35101.2247 190.6831
35109.1814 190.7071
35152.1436 190.8368
35188.6770 190.9471
35195.1465 190.9666
35238.1897 191.0965
35276.1689 191.2110
35281.2735 191.2264
35324.3976 191.3564
35363.7001 191.4749
35367.5624 191.4865
35410.7675 191.6167
35451.2703 191.7387
35454.0133 191.7470
35497.2993 191.8773
35538.8791 192.0024
35540.6261 192.0077
35583.9932 192.1382
35626.5262 192.2661
35627.4010 192.2688
35670.8491 192.3994
35714.2114 192.5297
35714.3380 192.5301
35757.8671 192.6609
35801.4371 192.7918
35801.9341 192.7933
35845.0473 192.9228
35888.6984 193.0538
35889.6942 193.0568
35932.3897 193.1849
35976.1218 193.3161
35977.4916 193.3202
36019.8943 193.4473
36063.7076 193.5787
36065.3258 193.5835
36107.5612 193.7101
36151.4557 193.8416
36153.1966 193.8468
36195.3905 193.9732
36239.3662 194.1048
36241.1039 194.1100
36283.3823 194.2365
36327.4392 194.3683
36329.0472 194.3731
36371.5365 194.5002
36415.6747 194.6321
36417.0263 194.6362
36459.8533 194.7642
36504.0729 194.8963
36505.0410 194.8992
36548.3328 195.0285
36592.6337 195.1607
36593.0910 195.1621
36636.9750 195.2930
36681.1761 195.4249
36681.3573 195.4255
36725.7800 195.5579
36769.2958 195.6877
36770.2437 195.6905
36814.7478 195.8231
36857.4501 195.9503
36859.2930 195.9558
36903.8787 196.0886
36945.6388 196.2129
36948.5054 196.2215
36993.1727 196.3544
37033.8615 196.4755
37037.8809 196.4874
37082.6297 196.6205
37122.1182 196.7379
37127.4196 196.7537
37172.2501 196.8869
37210.4085 197.0003
37217.1216 197.0202
37262.0337 197.1536
37298.7323 197.2626
37306.9869 197.2871
37351.9808 197.4206
37387.0893 197.5248
37397.0157 197.5542
37442.0913 197.6879
37475.4792 197.7869
37487.2080 197.8217
37532.3655 197.9555
37563.9019 198.0489
37577.5639 198.0894
37622.8032 198.2234
37652.3572 198.3109
37668.0835 198.3575
37713.4046 198.4916
37740.8447 198.5728
37758.7668 198.6258
37804.1698 198.7601
37829.3644 198.8346
37849.6139 198.8945
37895.0989 199.0289
37917.9158 199.0963
37940.6248 199.1634
37986.1918 199.2980
38006.4989 199.3579
38031.7997 199.4326
38077.4487 199.5673
38095.1133 199.6195
38123.1386 199.7021
38168.8696 199.8370
38183.7589 199.8809
38214.6415 199.9720
38260.4545 200.1070
38272.4354 200.1423
38306.3085 200.2421
38352.2036 200.3772
38361.1426 200.4036
38398.1396 200.5125
38444.1168 200.6478
38449.8803 200.6647
38490.1349 200.7832
38536.1943 200.9186
38538.6481 200.9259
38582.2944 201.0542
38627.4457 201.1869
38628.4359 201.1898
38674.6182 201.3254
38716.2721 201.4478
38720.8419 201.4612
38767.1063 201.5970
38805.1280 201.7086
38813.4121 201.7329
38859.7588 201.8689
38894.0132 201.9693
38906.1467 202.0049
38952.5756 202.1410
38982.9273 202.2300
38999.0457 202.2772
39045.5568 202.4135
39071.8702 202.4905
39092.1090 202.5498
39138.7024 202.6862
39160.8416 202.7510
39185.3368 202.8227
39232.0124 202.9592
39249.8413 203.0113
39278.7291 203.0958
39325.4869 203.2325
39338.8691 203.2716
39372.2858 203.3692
39419.1259 203.5061
39427.9246 203.5318
39466.0070 203.6430
39512.9294 203.7799
39517.0078 203.7918
39559.8926 203.9170
39606.1179 204.0518
39606.8973 204.0541
39653.9428 204.1913
39695.2539 204.3117
39701.0297 204.3285
39748.1574 204.4658
39784.4166 204.5714
39795.3265 204.6032
39842.5366 204.7407
39873.6059 204.8311
39889.7879 204.8782
39937.0802 205.0158
39962.8216 205.0907
39984.4137 205.1535
40031.7883 205.2912
40052.0633 205.3502
40079.2040 205.4290
40126.6609 205.5669
40141.3308 205.6095
40174.1588 205.7049
40221.6980 205.8429
40230.6240 205.8688
40269.2781 205.9810
40316.8995 206.1191
40319.9425 206.1279
40364.5618 206.2573
40409.2851 206.3870
40412.2655 206.3956
40460.0099 206.5340
40498.6517 206.6459
40507.7958 206.6724
40555.6225 206.8109
40588.0429 206.9048
40603.4904 206.9495
40651.3994 207.0881
40677.4584 207.1635
40699.3495 207.2268
40747.3407 207.3656
40766.8980 207.4221
40795.3729 207.5044
40843.4463 207.6433
40856.3615 207.6807
40891.5606 207.7823
40939.7162 207.9214
40945.8486 207.9391
40987.9126 208.0605
41035.3589 208.1974
41036.1503 208.1996
41084.4288 208.3389
41124.8904 208.4555
41132.7486 208.4782
41181.1093 208.6176
41214.4447 208.7136
41229.5111 208.7570
41277.9538 208.8965
41304.0217 208.9716
41326.4377 209.0361
41374.9626 209.1757
41393.6211 209.2294
41423.5284 209.3155
41472.1354 209.4552
41483.2426 209.4872
41520.7832 209.5951
41569.4723 209.7350
41572.8862 209.7448
41618.2021 209.8749
41662.5501 210.0023
41666.9731 210.0150
41715.7850 210.1551
41752.2344 210.2597
41764.6380 210.2953
41813.5319 210.4355
41841.9401 210.5169
41862.4669 210.5758
41911.4428 210.7162
41931.6668 210.7741
41960.4598 210.8566
42009.5178 210.9971
42021.4145 211.0311
42058.6166 211.1376
42107.7567 211.2783
42111.1829 211.2881
42156.9375 211.4189
42200.9701 211.5449
42206.1596 211.5597
42255.4224 211.7005
42290.7766 211.8015
42304.7264 211.8414
42354.0712 211.9823
42380.6032 212.0581
42403.4571 212.1233
42452.8841 212.2644
42470.4498 212.3145
42502.3519 212.4056
42551.8609 212.5468
42560.3161 212.5709
42601.4107 212.6880
42650.2018 212.8271
42651.0018 212.8294
42700.6336 212.9707
42740.1042 213.0831
42750.3066 213.1122
42800.0204 213.2537
42830.0259 213.3391
42849.7754 213.3953
42899.5714 213.5369
42919.9667 213.5949
42949.4083 213.6786
42999.2864 213.8204
43009.9264 213.8507
43049.2053 213.9623
43099.1655 214.1042
43099.9049 214.1062
43149.1665 214.2461
43189.8991 214.3617
43199.2087 214.3881
43249.2918 214.5302
43279.9116 214.6171
43299.4160 214.6724
43349.5813 214.8146
43369.9424 214.8723
43416.6802 215.0046
