SF_Version 0.9.3
03-Sep-2024 23:12:15
Temp(K) Pressure(MPa) Temp(K) Pressure(MPa)  Points 
256.1641 350.1095 251.1191 207.5930 336.0000
###########################################################
D H (J/kg)  D S (J/(K*kg)
266707.0422 1041.1570
266695.0568 1041.1735
266685.1213 1041.1868
266675.0786 1041.1998
266664.9286 1041.2125
266656.9948 1041.2221
266654.6672 1041.2249
266644.2852 1041.2370
266633.7951 1041.2487
266623.1968 1041.2601
266612.4900 1041.2713
266601.6746 1041.2821
266590.7503 1041.2926
266579.7169 1041.3029
266574.6862 1041.3074
266568.5649 1041.3127
266557.2957 1041.3223
266545.9168 1041.3315
266534.4279 1041.3405
266522.8288 1041.3491
266511.1193 1041.3574
266499.2992 1041.3654
266487.3756 1041.3731
266487.3682 1041.3731
266475.3090 1041.3804
266463.1384 1041.3874
266450.8563 1041.3941
266438.4625 1041.4005
266425.9566 1041.4066
266413.3386 1041.4123
266400.6081 1041.4178
266395.2204 1041.4199
266387.7548 1041.4228
266374.7812 1041.4276
266361.6946 1041.4320
266348.4945 1041.4361
266335.1809 1041.4399
266321.7534 1041.4433
266308.2118 1041.4465
266298.3908 1041.4485
266294.5510 1041.4493
266280.7629 1041.4517
266266.8600 1041.4538
266252.8420 1041.4556
266238.7088 1041.4571
266224.4601 1041.4582
266210.0957 1041.4590
266197.0322 1041.4594
266195.6135 1041.4595
266180.9988 1041.4595
266166.2676 1041.4593
266151.4197 1041.4587
266136.4548 1041.4578
266121.3728 1041.4566
266106.1732 1041.4550
266091.2819 1041.4532
266090.8554 1041.4531
266075.4019 1041.4508
266059.8301 1041.4481
266044.1398 1041.4452
266028.3308 1041.4419
266012.4029 1041.4382
265996.3556 1041.4342
265981.2702 1041.4302
265980.1877 1041.4299
265963.8826 1041.4251
265947.4574 1041.4201
265930.9120 1041.4146
265914.2460 1041.4089
265897.4592 1041.4028
265880.5514 1041.3963
265867.1200 1041.3910
265863.5182 1041.3895
265846.3484 1041.3823
265829.0568 1041.3747
265811.6430 1041.3668
265794.1068 1041.3586
265776.4479 1041.3500
265758.6660 1041.3410
265748.9475 1041.3360
265740.7521 1041.3317
265722.7042 1041.3220
265704.5325 1041.3119
265686.2368 1041.3014
265667.8167 1041.2906
265649.2719 1041.2795
265630.6022 1041.2680
265626.8627 1041.2656
265611.7918 1041.2561
265592.8519 1041.2438
265573.7863 1041.2311
265554.5946 1041.2181
265535.2766 1041.2047
265515.8319 1041.1910
265500.9650 1041.1802
265496.2556 1041.1768
265476.5370 1041.1623
265456.6910 1041.1474
265436.7171 1041.1321
265416.6151 1041.1164
265396.3848 1041.1004
265376.0258 1041.0840
265371.3531 1041.0802
265355.5224 1041.0672
265334.8851 1041.0500
265314.1183 1041.0324
265293.2215 1041.0145
265272.1947 1040.9962
265251.0373 1040.9775
265238.1183 1040.9659
265229.7412 1040.9584
265208.3018 1040.9388
265186.7309 1040.9189
265165.0283 1040.8986
265143.1938 1040.8780
265121.2270 1040.8569
265101.3510 1040.8376
265099.1255 1040.8355
265076.8726 1040.8136
265054.4865 1040.7913
265031.9668 1040.7686
265009.3133 1040.7456
264986.5256 1040.7221
264963.6035 1040.6983
264961.1317 1040.6957
264940.5280 1040.6740
264917.3151 1040.6493
264893.9668 1040.6242
264870.4827 1040.5988
264846.8626 1040.5729
264823.1062 1040.5466
264817.5409 1040.5404
264799.1968 1040.5199
264775.1454 1040.4928
264750.9567 1040.4652
264726.6303 1040.4373
264702.1659 1040.4089
264677.5632 1040.3802
264670.6559 1040.3721
264652.8064 1040.3510
264627.9046 1040.3214
264602.8634 1040.2913
264577.6826 1040.2609
264552.3618 1040.2300
264526.9007 1040.1988
264520.5489 1040.1909
264501.2826 1040.1670
264475.5181 1040.1348
264449.6122 1040.1023
264423.5646 1040.0693
264397.3750 1040.0359
264371.0430 1040.0020
264367.2893 1039.9972
264344.5495 1039.9677
264317.9097 1039.9330
264291.1265 1039.8978
264264.1995 1039.8622
264237.1283 1039.8262
264210.9429 1039.7912
264209.9119 1039.7898
264182.5292 1039.7529
264155.0012 1039.7155
264127.3277 1039.6777
264099.5082 1039.6395
264071.5425 1039.6009
264051.5713 1039.5731
264043.4236 1039.5618
264015.1416 1039.5222
263986.7122 1039.4821
263958.1351 1039.4417
263929.4098 1039.4008
263900.5360 1039.3594
263889.2361 1039.3432
263871.4993 1039.3176
263842.3045 1039.2753
263812.9600 1039.2326
263783.4655 1039.1894
263753.8205 1039.1457
263724.0247 1039.1017
263723.9944 1039.1016
263694.0546 1039.0571
263663.9329 1039.0120
263633.6591 1038.9665
263603.2330 1038.9206
263572.6541 1038.8742
263555.8976 1038.8486
263541.9113 1038.8273
263511.0022 1038.7799
263479.9391 1038.7320
263448.7216 1038.6837
263417.3492 1038.6349
263385.8217 1038.5857
263385.0000 1038.5844
263354.1154 1038.5359
263322.2524 1038.4856
263290.2330 1038.4349
263258.0567 1038.3837
263225.7231 1038.3321
263211.3482 1038.3090
263193.2184 1038.2799
263160.5450 1038.2273
263127.7129 1038.1741
263094.7219 1038.1205
263061.5714 1038.0664
263034.9911 1038.0228
263028.2562 1038.0118
262994.7613 1037.9566
262961.1057 1037.9010
262927.2890 1037.8449
262893.3106 1037.7883
262859.1702 1037.7313
262855.9730 1037.7259
262824.8451 1037.6736
262790.3547 1037.6155
262755.7010 1037.5569
262720.8834 1037.4977
262685.9016 1037.4381
262674.3373 1037.4184
262650.7384 1037.3780
262615.4019 1037.3173
262579.8997 1037.2561
262544.2315 1037.1944
262508.3967 1037.1322
262490.1261 1037.1004
262472.3825 1037.0695
262436.1881 1037.0062
262399.8258 1036.9424
262363.2950 1036.8781
262326.5953 1036.8133
262303.3792 1036.7722
262289.7169 1036.7480
262252.6526 1036.6821
262215.4180 1036.6157
262178.0125 1036.5487
262140.4358 1036.4812
262114.1348 1036.4339
262102.6795 1036.4132
262064.7330 1036.3446
262026.6137 1036.2755
261988.3212 1036.2059
261949.8548 1036.1357
261922.4294 1036.0855
261911.2067 1036.0650
261872.3653 1035.9937
261833.3486 1035.9218
261794.1560 1035.8494
261754.7871 1035.7765
261728.2979 1035.7273
261715.2328 1035.7030
261675.4834 1035.6289
261635.5561 1035.5543
261595.4503 1035.4791
261555.1655 1035.4034
261531.7731 1035.3593
261514.6901 1035.3271
261474.0192 1035.2502
261433.1677 1035.1727
261392.1350 1035.0947
261350.9206 1035.0162
261332.8861 1034.9817
261309.5088 1034.9370
261267.9025 1034.8572
261226.1128 1034.7769
261184.1390 1034.6960
261141.9808 1034.6145
261131.6663 1034.5945
261099.6169 1034.5324
261057.0607 1034.4497
261014.3182 1034.3664
260971.3889 1034.2826
260928.2720 1034.1982
260928.1413 1034.1979
260884.9398 1034.1131
260841.4188 1034.0274
260797.7086 1033.9412
260753.8084 1033.8544
260722.3398 1033.7920
260709.7099 1033.7669
260665.4005 1033.6788
260620.8993 1033.5901
260576.2057 1033.5008
260531.3192 1033.4109
260514.2842 1033.3767
260486.2216 1033.3204
260440.9191 1033.2292
260395.4217 1033.1374
260349.7288 1033.0450
260303.9969 1032.9524
260303.8395 1032.9520
260257.7252 1032.8583
260211.4133 1032.7640
260164.9032 1032.6691
260118.1942 1032.5736
260091.5047 1032.5189
260071.2734 1032.4774
260024.1360 1032.3805
259976.7977 1032.2830
259929.2577 1032.1848
259881.5155 1032.0861
259876.8226 1032.0763
259833.5442 1031.9866
259785.3663 1031.8864
259736.9839 1031.7857
259688.3964 1031.6843
259659.9752 1031.6248
259639.5909 1031.5822
259590.5617 1031.4794
259541.3252 1031.3759
259491.8806 1031.2718
259442.2273 1031.1671
259440.9757 1031.1644
259392.3356 1031.0616
259342.2328 1030.9554
259291.9190 1030.8486
259241.3933 1030.7411
259219.8482 1030.6952
259190.6380 1030.6329
259139.6565 1030.5240
259088.4609 1030.4144
259037.0504 1030.3041
258996.6027 1030.2172
258985.4177 1030.1931
258933.5447 1030.0814
258881.4545 1029.9690
258829.1461 1029.8558
258776.6189 1029.7421
258771.2571 1029.7304
258723.8445 1029.6275
258670.8463 1029.5122
258617.6268 1029.3962
258564.1851 1029.2795
258543.8282 1029.2350
258510.5012 1029.1620
258456.5816 1029.0438
258402.4372 1028.9249
258358.2955 1028.8279
