SF_Version 0.9.3
03-Sep-2024 23:12:15 
Temp(K) Pressure(MPa)
201.9335 670.8401
202.0000 670.8792
202.1000 670.9366
202.2000 670.9937
202.2112 671.0000
202.3000 671.0505
202.4000 671.1070
202.5000 671.1633
202.6000 671.2193
202.7000 671.2750
202.8000 671.3304
202.9000 671.3856
203.0000 671.4405
203.1000 671.4951
203.1090 671.5000
203.2000 671.5494
203.3000 671.6035
203.4000 671.6573
203.5000 671.7108
203.6000 671.7640
203.7000 671.8170
203.8000 671.8696
203.9000 671.9220
204.0000 671.9742
204.0499 672.0000
204.1000 672.0260
204.2000 672.0776
204.3000 672.1289
204.4000 672.1799
204.5000 672.2306
204.6000 672.2810
204.7000 672.3312
204.8000 672.3811
204.9000 672.4307
205.0000 672.4801
205.0407 672.5000
205.1000 672.5291
205.2000 672.5779
205.3000 672.6264
205.4000 672.6746
205.5000 672.7225
205.6000 672.7702
205.7000 672.8176
205.8000 672.8647
205.9000 672.9115
206.0000 672.9580
206.0907 673.0000
206.1000 673.0043
206.2000 673.0503
206.3000 673.0960
206.4000 673.1414
206.5000 673.1865
206.6000 673.2314
206.7000 673.2760
206.8000 673.3203
206.9000 673.3643
207.0000 673.4080
207.1000 673.4514
207.2000 673.4946
207.2126 673.5000
207.3000 673.5375
207.4000 673.5801
207.5000 673.6224
207.6000 673.6644
207.7000 673.7062
207.8000 673.7477
207.9000 673.7889
208.0000 673.8298
208.1000 673.8704
208.2000 673.9107
208.3000 673.9508
208.4000 673.9906
208.4239 674.0000
208.5000 674.0300
208.6000 674.0693
208.7000 674.1082
208.8000 674.1468
208.9000 674.1852
209.0000 674.2232
209.1000 674.2610
209.2000 674.2985
209.3000 674.3357
209.4000 674.3727
209.5000 674.4093
209.6000 674.4457
209.7000 674.4818
209.7510 674.5000
209.8000 674.5176
209.9000 674.5531
210.0000 674.5883
210.1000 674.6232
210.2000 674.6579
210.3000 674.6922
210.4000 674.7263
210.5000 674.7601
210.6000 674.7936
210.7000 674.8268
210.8000 674.8598
210.9000 674.8924
211.0000 674.9248
211.1000 674.9568
211.2000 674.9886
211.2361 675.0000
211.3000 675.0201
211.4000 675.0513
211.5000 675.0823
211.6000 675.1129
211.7000 675.1432
211.8000 675.1733
211.9000 675.2031
212.0000 675.2326
212.1000 675.2618
212.2000 675.2907
212.3000 675.3193
212.4000 675.3476
212.5000 675.3757
212.6000 675.4034
212.7000 675.4309
212.8000 675.4581
212.9000 675.4849
212.9566 675.5000
213.0000 675.5115
213.1000 675.5378
213.2000 675.5639
213.3000 675.5896
213.4000 675.6150
213.5000 675.6402
213.6000 675.6651
213.7000 675.6896
213.8000 675.7139
213.9000 675.7379
214.0000 675.7616
214.1000 675.7850
214.2000 675.8081
214.3000 675.8309
214.4000 675.8535
214.5000 675.8757
214.6000 675.8977
214.7000 675.9193
214.8000 675.9407
214.9000 675.9618
215.0000 675.9826
215.0850 676.0000
215.1000 676.0031
215.2000 676.0233
215.3000 676.0432
215.4000 676.0628
215.5000 676.0821
215.6000 676.1012
215.7000 676.1199
215.8000 676.1384
215.9000 676.1565
216.0000 676.1744
216.1000 676.1920
216.2000 676.2092
216.3000 676.2262
216.4000 676.2429
216.5000 676.2593
216.6000 676.2754
216.7000 676.2912
216.8000 676.3068
216.9000 676.3220
217.0000 676.3369
217.1000 676.3515
217.2000 676.3659
217.3000 676.3799
217.4000 676.3937
217.5000 676.4071
217.6000 676.4203
217.7000 676.4332
217.8000 676.4457
217.9000 676.4580
218.0000 676.4700
218.1000 676.4817
218.2000 676.4931
218.2624 676.5000
218.3000 676.5042
218.4000 676.5150
218.5000 676.5255
218.6000 676.5357
218.7000 676.5456
218.8000 676.5552
218.9000 676.5645
219.0000 676.5736
219.1000 676.5823
219.2000 676.5907
219.3000 676.5989
219.4000 676.6067
219.5000 676.6142
219.6000 676.6215
219.7000 676.6284
219.8000 676.6351
219.9000 676.6414
220.0000 676.6475
220.1000 676.6532
220.2000 676.6587
220.3000 676.6638
220.4000 676.6687
220.5000 676.6733
220.6000 676.6775
220.7000 676.6815
220.8000 676.6852
220.9000 676.6885
221.0000 676.6916
221.1000 676.6944
221.2000 676.6968
221.3000 676.6990
221.4000 676.7009
221.5000 676.7025
221.6000 676.7037
221.7000 676.7047
221.8000 676.7054
221.9000 676.7058
222.0000 676.7058
222.1000 676.7056
222.2000 676.7051
222.3000 676.7043
222.4000 676.7031
222.5000 676.7017
222.6000 676.7000
222.7000 676.6980
222.8000 676.6956
222.9000 676.6930
223.0000 676.6901
223.1000 676.6868
223.2000 676.6833
223.3000 676.6795
223.4000 676.6753
223.5000 676.6709
223.6000 676.6662
223.7000 676.6611
223.8000 676.6558
223.9000 676.6501
224.0000 676.6442
224.1000 676.6379
224.2000 676.6314
224.3000 676.6245
224.4000 676.6174
224.5000 676.6099
224.6000 676.6022
224.7000 676.5941
224.8000 676.5857
224.9000 676.5771
225.0000 676.5681
225.1000 676.5588
225.2000 676.5492
225.3000 676.5393
225.4000 676.5291
225.5000 676.5187
225.6000 676.5079
225.6707 676.5000
225.7000 676.4968
225.8000 676.4853
225.9000 676.4736
226.0000 676.4616
226.1000 676.4493
226.2000 676.4367
226.3000 676.4238
226.4000 676.4105
226.5000 676.3970
226.6000 676.3831
226.7000 676.3690
226.8000 676.3545
226.9000 676.3398
227.0000 676.3247
227.1000 676.3093
227.2000 676.2937
227.3000 676.2777
227.4000 676.2614
227.5000 676.2448
227.6000 676.2279
227.7000 676.2107
227.8000 676.1932
227.9000 676.1753
228.0000 676.1572
228.1000 676.1388
228.2000 676.1200
228.3000 676.1010
228.4000 676.0816
228.5000 676.0620
228.6000 676.0420
228.7000 676.0217
228.8000 676.0011
228.8054 676.0000
228.9000 675.9802
229.0000 675.9590
229.1000 675.9375
229.2000 675.9157
229.3000 675.8936
229.4000 675.8711
229.5000 675.8484
229.6000 675.8253
229.7000 675.8020
229.8000 675.7783
229.9000 675.7543
230.0000 675.7300
230.1000 675.7054
230.2000 675.6805
230.3000 675.6553
230.4000 675.6298
230.5000 675.6040
230.6000 675.5778
230.7000 675.5514
230.8000 675.5246
230.8909 675.5000
230.9000 675.4975
231.0000 675.4701
231.1000 675.4425
231.2000 675.4144
231.3000 675.3861
231.4000 675.3575
231.5000 675.3286
231.6000 675.2993
231.7000 675.2698
231.8000 675.2399
231.9000 675.2097
232.0000 675.1792
232.1000 675.1484
232.2000 675.1173
232.3000 675.0859
232.4000 675.0541
232.5000 675.0221
232.5683 675.0000
232.6000 674.9897
232.7000 674.9571
232.8000 674.9241
232.9000 674.8908
233.0000 674.8572
233.1000 674.8232
233.2000 674.7890
233.3000 674.7545
233.4000 674.7196
233.5000 674.6844
233.6000 674.6489
233.7000 674.6131
233.8000 674.5770
233.9000 674.5406
234.0000 674.5038
234.0104 674.5000
234.1000 674.4668
234.2000 674.4294
234.3000 674.3917
234.4000 674.3537
234.5000 674.3154
234.6000 674.2768
234.7000 674.2379
234.8000 674.1986
234.9000 674.1590
235.0000 674.1192
235.1000 674.0790
235.2000 674.0384
235.2942 674.0000
235.3000 673.9976
235.4000 673.9565
235.5000 673.9150
235.6000 673.8732
235.7000 673.8312
235.8000 673.7888
235.9000 673.7460
236.0000 673.7030
236.1000 673.6596
236.2000 673.6160
236.3000 673.5720
236.4000 673.5277
236.4621 673.5000
236.5000 673.4831
236.6000 673.4381
236.7000 673.3929
236.8000 673.3473
236.9000 673.3014
237.0000 673.2552
237.1000 673.2087
237.2000 673.1619
237.3000 673.1147
237.4000 673.0673
237.5000 673.0195
237.5405 673.0000
237.6000 672.9714
237.7000 672.9230
237.8000 672.8742
237.9000 672.8252
238.0000 672.7758
238.1000 672.7261
238.2000 672.6761
238.3000 672.6258
238.4000 672.5751
238.5000 672.5241
238.5471 672.5000
238.6000 672.4728
238.7000 672.4212
238.8000 672.3693
238.9000 672.3171
239.0000 672.2645
239.1000 672.2116
239.2000 672.1584
239.3000 672.1049
239.4000 672.0511
239.4943 672.0000
239.5000 671.9969
239.6000 671.9424
239.7000 671.8876
239.8000 671.8325
239.9000 671.7771
240.0000 671.7213
240.1000 671.6652
240.2000 671.6088
240.3000 671.5521
240.3913 671.5000
240.4000 671.4950
240.5000 671.4377
240.6000 671.3800
240.7000 671.3220
240.8000 671.2637
240.9000 671.2050
241.0000 671.1460
241.1000 671.0868
241.2000 671.0271
241.2453 671.0000
241.3000 670.9672
241.4000 670.9069
241.5000 670.8464
241.6000 670.7855
241.7000 670.7242
241.8000 670.6627
241.9000 670.6008
242.0000 670.5386
242.0618 670.5000
242.1000 670.4761
242.2000 670.4133
242.3000 670.3501
242.4000 670.2866
242.5000 670.2228
242.6000 670.1587
242.7000 670.0942
242.8000 670.0295
242.8452 670.0000
242.9000 669.9644
243.0000 669.8989
243.1000 669.8332
243.2000 669.7671
243.3000 669.7007
243.4000 669.6340
243.5000 669.5669
243.5994 669.5000
243.6000 669.4996
243.7000 669.4319
243.8000 669.3639
243.9000 669.2955
244.0000 669.2268
244.1000 669.1578
244.2000 669.0885
244.3000 669.0189
244.3270 669.0000
244.4000 668.9489
244.5000 668.8786
244.6000 668.8080
244.7000 668.7370
244.8000 668.6658
244.9000 668.5942
245.0000 668.5222
245.0308 668.5000
245.1000 668.4500
245.2000 668.3774
245.3000 668.3045
245.4000 668.2313
245.5000 668.1577
245.6000 668.0838
245.7000 668.0096
245.7129 668.0000
245.8000 667.9351
245.9000 667.8602
246.0000 667.7850
246.1000 667.7095
246.2000 667.6336
246.3000 667.5575
246.3751 667.5000
246.4000 667.4810
246.5000 667.4041
246.6000 667.3270
246.7000 667.2495
246.8000 667.1717
246.9000 667.0935
247.0000 667.0150
247.0191 667.0000
247.1000 666.9362
247.2000 666.8571
247.3000 666.7776
247.4000 666.6978
247.5000 666.6177
247.6000 666.5373
247.6462 666.5000
247.7000 666.4565
247.8000 666.3754
247.9000 666.2940
248.0000 666.2122
248.1000 666.1301
248.2000 666.0477
248.2576 666.0000
248.3000 665.9649
248.4000 665.8818
248.5000 665.7984
248.6000 665.7147
248.7000 665.6306
248.8000 665.5462
248.8545 665.5000
248.9000 665.4614
249.0000 665.3764
249.1000 665.2910
249.2000 665.2052
249.3000 665.1192
249.4000 665.0328
249.4378 665.0000
249.5000 664.9460
249.6000 664.8590
249.7000 664.7716
249.8000 664.6839
249.9000 664.5958
250.0000 664.5074
250.0084 664.5000
250.1000 664.4187
250.2000 664.3297
250.3000 664.2403
250.4000 664.1506
250.5000 664.0605
250.5669 664.0000
250.6000 663.9701
250.7000 663.8794
250.8000 663.7884
250.9000 663.6970
251.0000 663.6053
251.1000 663.5132
251.1143 663.5000
251.2000 663.4208
251.3000 663.3281
251.4000 663.2351
251.5000 663.1417
251.6000 663.0480
251.6510 663.0000
251.7000 662.9539
251.8000 662.8595
251.9000 662.7648
252.0000 662.6698
252.1000 662.5744
252.1777 662.5000
252.2000 662.4786
252.3000 662.3826
252.4000 662.2862
252.5000 662.1895
252.6000 662.0924
252.6948 662.0000
252.7000 661.9950
252.8000 661.8972
252.9000 661.7992
253.0000 661.7008
253.1000 661.6020
253.2000 661.5029
253.2030 661.5000
253.3000 661.4035
253.4000 661.3038
253.5000 661.2037
253.6000 661.1033
253.7000 661.0025
253.7025 661.0000
253.8000 660.9014
253.9000 660.8000
254.0000 660.6982
254.1000 660.5961
254.1938 660.5000
254.2000 660.4936
254.3000 660.3908
254.4000 660.2877
254.5000 660.1842
254.6000 660.0804
254.6772 660.0000
254.7000 659.9763
254.8000 659.8718
254.9000 659.7670
255.0000 659.6619
255.1000 659.5564
255.1533 659.5000
255.2000 659.4505
255.3000 659.3444
255.4000 659.2379
255.5000 659.1310
255.6000 659.0238
255.6222 659.0000
255.7000 658.9163
255.8000 658.8084
255.9000 658.7002
256.0000 658.5917
256.0842 658.5000
256.1000 658.4828
256.2000 658.3736
256.3000 658.2640
256.4000 658.1541
256.5000 658.0439
256.5397 658.0000
256.6000 657.9333
256.7000 657.8224
256.8000 657.7111
256.9000 657.5995
256.9889 657.5000
257.0000 657.4875
257.1000 657.3752
257.2000 657.2626
257.3000 657.1496
257.4000 657.0363
257.4320 657.0000
257.5000 656.9227
257.6000 656.8087
257.7000 656.6943
257.8000 656.5797
257.8693 656.5000
257.9000 656.4646
258.0000 656.3493
258.1000 656.2336
258.2000 656.1175
258.3000 656.0011
258.3010 656.0000
258.4000 655.8844
258.5000 655.7673
258.6000 655.6499
258.7000 655.5321
258.7272 655.5000
258.8000 655.4140
258.9000 655.2956
259.0000 655.1768
259.1000 655.0576
259.1482 655.0000
259.2000 654.9381
259.3000 654.8183
259.4000 654.6981
259.5000 654.5776
259.5642 654.5000
259.6000 654.4568
259.7000 654.3356
259.8000 654.2140
259.9000 654.0921
259.9754 654.0000
260.0000 653.9699
260.1000 653.8473
260.2000 653.7244
260.3000 653.6011
260.3818 653.5000
260.4000 653.4775
260.5000 653.3535
260.6000 653.2292
260.7000 653.1045
260.7836 653.0000
260.8000 652.9795
260.9000 652.8542
261.0000 652.7285
261.1000 652.6024
261.1810 652.5000
261.2000 652.4760
261.3000 652.3493
261.4000 652.2222
261.5000 652.0948
261.5742 652.0000
261.6000 651.9670
261.7000 651.8389
261.8000 651.7104
261.9000 651.5816
261.9632 651.5000
262.0000 651.4524
262.1000 651.3229
262.2000 651.1930
262.3000 651.0628
262.3481 651.0000
262.4000 650.9322
262.5000 650.8013
262.6000 650.6701
262.7000 650.5385
262.7292 650.5000
262.8000 650.4065
262.9000 650.2742
263.0000 650.1415
263.1000 650.0085
263.1064 650.0000
263.2000 649.8752
263.3000 649.7415
263.4000 649.6074
263.4799 649.5000
263.5000 649.4730
263.6000 649.3383
263.7000 649.2032
263.8000 649.0677
263.8499 649.0000
263.9000 648.9319
264.0000 648.7958
264.1000 648.6593
264.2000 648.5224
264.2163 648.5000
264.3000 648.3852
264.4000 648.2476
264.5000 648.1097
264.5794 648.0000
264.6000 647.9715
264.7000 647.8328
264.8000 647.6939
264.9000 647.5546
264.9391 647.5000
265.0000 647.4149
265.1000 647.2749
265.2000 647.1345
265.2956 647.0000
265.3000 646.9938
265.4000 646.8527
265.5000 646.7113
265.6000 646.5695
265.6489 646.5000
265.7000 646.4273
265.8000 646.2848
265.9000 646.1420
265.9992 646.0000
266.0000 645.9988
266.1000 645.8552
266.2000 645.7113
266.3000 645.5671
266.3464 645.5000
266.4000 645.4225
266.5000 645.2775
266.6000 645.1322
266.6907 645.0000
266.7000 644.9865
266.8000 644.8405
266.9000 644.6941
267.0000 644.5473
267.0322 644.5000
267.1000 644.4002
267.2000 644.2528
267.3000 644.1050
267.3708 644.0000
267.4000 643.9568
267.5000 643.8083
267.6000 643.6594
267.7000 643.5102
267.7068 643.5000
267.8000 643.3606
267.9000 643.2106
268.0000 643.0603
268.0401 643.0000
268.1000 642.9097
268.2000 642.7587
268.3000 642.6073
268.3707 642.5000
268.4000 642.4556
268.5000 642.3035
268.6000 642.1510
268.6988 642.0000
268.7000 641.9982
268.8000 641.8451
268.9000 641.6916
269.0000 641.5377
269.0244 641.5000
269.1000 641.3835
269.2000 641.2289
269.3000 641.0739
269.3476 641.0000
269.4000 640.9186
269.5000 640.7629
269.6000 640.6069
269.6684 640.5000
269.7000 640.4505
269.8000 640.2938
269.9000 640.1367
269.9868 640.0000
270.0000 639.9792
270.1000 639.8214
270.2000 639.6632
270.3000 639.5046
270.3029 639.5000
270.4000 639.3457
270.5000 639.1865
270.6000 639.0268
270.6168 639.0000
270.7000 638.8669
270.8000 638.7065
270.9000 638.5458
270.9284 638.5000
271.0000 638.3847
271.1000 638.2233
271.2000 638.0615
271.2379 638.0000
271.3000 637.8993
271.4000 637.7368
271.5000 637.5739
271.5453 637.5000
271.6000 637.4107
271.7000 637.2471
271.8000 637.0831
271.8506 637.0000
271.9000 636.9188
272.0000 636.7541
272.1000 636.5891
272.1538 636.5000
272.2000 636.4236
272.3000 636.2579
272.4000 636.0917
272.4551 636.0000
272.5000 635.9252
272.6000 635.7583
272.7000 635.5911
272.7543 635.5000
272.8000 635.4235
272.9000 635.2555
273.0000 635.0872
273.0517 635.0000
273.1000 634.9185
273.2000 634.7494
273.3000 634.5800
273.3471 634.5000
273.4063 634.3997
